# E (eV)   ldos(E)   pdos(E)   
 -25.210  0.398E-08  0.398E-08
 -25.200  0.456E-08  0.456E-08
 -25.190  0.523E-08  0.523E-08
 -25.180  0.599E-08  0.599E-08
 -25.170  0.685E-08  0.685E-08
 -25.160  0.784E-08  0.784E-08
 -25.150  0.896E-08  0.896E-08
 -25.140  0.102E-07  0.102E-07
 -25.130  0.117E-07  0.117E-07
 -25.120  0.133E-07  0.133E-07
 -25.110  0.152E-07  0.152E-07
 -25.100  0.173E-07  0.173E-07
 -25.090  0.197E-07  0.197E-07
 -25.080  0.224E-07  0.224E-07
 -25.070  0.255E-07  0.255E-07
 -25.060  0.289E-07  0.289E-07
 -25.050  0.328E-07  0.328E-07
 -25.040  0.372E-07  0.372E-07
 -25.030  0.422E-07  0.422E-07
 -25.020  0.478E-07  0.478E-07
 -25.010  0.541E-07  0.541E-07
 -25.000  0.612E-07  0.612E-07
 -24.990  0.692E-07  0.692E-07
 -24.980  0.782E-07  0.782E-07
 -24.970  0.883E-07  0.883E-07
 -24.960  0.997E-07  0.997E-07
 -24.950  0.112E-06  0.112E-06
 -24.940  0.127E-06  0.127E-06
 -24.930  0.143E-06  0.143E-06
 -24.920  0.160E-06  0.160E-06
 -24.910  0.180E-06  0.180E-06
 -24.900  0.203E-06  0.203E-06
 -24.890  0.228E-06  0.228E-06
 -24.880  0.255E-06  0.255E-06
 -24.870  0.286E-06  0.286E-06
 -24.860  0.321E-06  0.321E-06
 -24.850  0.360E-06  0.360E-06
 -24.840  0.402E-06  0.402E-06
 -24.830  0.450E-06  0.450E-06
 -24.820  0.503E-06  0.503E-06
 -24.810  0.562E-06  0.562E-06
 -24.800  0.627E-06  0.627E-06
 -24.790  0.699E-06  0.699E-06
 -24.780  0.780E-06  0.780E-06
 -24.770  0.868E-06  0.868E-06
 -24.760  0.967E-06  0.967E-06
 -24.750  0.108E-05  0.108E-05
 -24.740  0.120E-05  0.120E-05
 -24.730  0.133E-05  0.133E-05
 -24.720  0.147E-05  0.147E-05
 -24.710  0.164E-05  0.164E-05
 -24.700  0.181E-05  0.181E-05
 -24.690  0.201E-05  0.201E-05
 -24.680  0.222E-05  0.222E-05
 -24.670  0.246E-05  0.246E-05
 -24.660  0.272E-05  0.272E-05
 -24.650  0.301E-05  0.301E-05
 -24.640  0.332E-05  0.332E-05
 -24.630  0.366E-05  0.366E-05
 -24.620  0.404E-05  0.404E-05
 -24.610  0.445E-05  0.445E-05
 -24.600  0.490E-05  0.490E-05
 -24.590  0.539E-05  0.539E-05
 -24.580  0.593E-05  0.593E-05
 -24.570  0.652E-05  0.652E-05
 -24.560  0.716E-05  0.716E-05
 -24.550  0.786E-05  0.786E-05
 -24.540  0.862E-05  0.862E-05
 -24.530  0.945E-05  0.945E-05
 -24.520  0.103E-04  0.103E-04
 -24.510  0.113E-04  0.113E-04
 -24.500  0.124E-04  0.124E-04
 -24.490  0.135E-04  0.135E-04
 -24.480  0.148E-04  0.148E-04
 -24.470  0.161E-04  0.161E-04
 -24.460  0.176E-04  0.176E-04
 -24.450  0.192E-04  0.192E-04
 -24.440  0.209E-04  0.209E-04
 -24.430  0.228E-04  0.228E-04
 -24.420  0.248E-04  0.248E-04
 -24.410  0.269E-04  0.269E-04
 -24.400  0.293E-04  0.293E-04
 -24.390  0.318E-04  0.318E-04
 -24.380  0.345E-04  0.345E-04
 -24.370  0.374E-04  0.374E-04
 -24.360  0.405E-04  0.405E-04
 -24.350  0.439E-04  0.439E-04
 -24.340  0.475E-04  0.475E-04
 -24.330  0.514E-04  0.514E-04
 -24.320  0.555E-04  0.555E-04
 -24.310  0.599E-04  0.599E-04
 -24.300  0.647E-04  0.647E-04
 -24.290  0.698E-04  0.698E-04
 -24.280  0.752E-04  0.752E-04
 -24.270  0.810E-04  0.810E-04
 -24.260  0.872E-04  0.872E-04
 -24.250  0.937E-04  0.937E-04
 -24.240  0.101E-03  0.101E-03
 -24.230  0.108E-03  0.108E-03
 -24.220  0.116E-03  0.116E-03
 -24.210  0.125E-03  0.125E-03
 -24.200  0.134E-03  0.134E-03
 -24.190  0.143E-03  0.143E-03
 -24.180  0.153E-03  0.153E-03
 -24.170  0.164E-03  0.164E-03
 -24.160  0.175E-03  0.175E-03
 -24.150  0.187E-03  0.187E-03
 -24.140  0.200E-03  0.200E-03
 -24.130  0.213E-03  0.213E-03
 -24.120  0.228E-03  0.228E-03
 -24.110  0.242E-03  0.242E-03
 -24.100  0.258E-03  0.258E-03
 -24.090  0.275E-03  0.275E-03
 -24.080  0.292E-03  0.292E-03
 -24.070  0.310E-03  0.310E-03
 -24.060  0.330E-03  0.330E-03
 -24.050  0.350E-03  0.350E-03
 -24.040  0.371E-03  0.371E-03
 -24.030  0.393E-03  0.393E-03
 -24.020  0.417E-03  0.417E-03
 -24.010  0.441E-03  0.441E-03
 -24.000  0.466E-03  0.466E-03
 -23.990  0.493E-03  0.493E-03
 -23.980  0.521E-03  0.521E-03
 -23.970  0.550E-03  0.550E-03
 -23.960  0.580E-03  0.580E-03
 -23.950  0.611E-03  0.611E-03
 -23.940  0.644E-03  0.644E-03
 -23.930  0.678E-03  0.678E-03
 -23.920  0.713E-03  0.713E-03
 -23.910  0.750E-03  0.750E-03
 -23.900  0.788E-03  0.788E-03
 -23.890  0.827E-03  0.827E-03
 -23.880  0.868E-03  0.868E-03
 -23.870  0.910E-03  0.910E-03
 -23.860  0.953E-03  0.953E-03
 -23.850  0.998E-03  0.998E-03
 -23.840  0.104E-02  0.104E-02
 -23.830  0.109E-02  0.109E-02
 -23.820  0.114E-02  0.114E-02
 -23.810  0.119E-02  0.119E-02
 -23.800  0.124E-02  0.124E-02
 -23.790  0.130E-02  0.130E-02
 -23.780  0.135E-02  0.135E-02
 -23.770  0.141E-02  0.141E-02
 -23.760  0.147E-02  0.147E-02
 -23.750  0.152E-02  0.152E-02
 -23.740  0.158E-02  0.158E-02
 -23.730  0.165E-02  0.165E-02
 -23.720  0.171E-02  0.171E-02
 -23.710  0.177E-02  0.177E-02
 -23.700  0.184E-02  0.184E-02
 -23.690  0.190E-02  0.190E-02
 -23.680  0.197E-02  0.197E-02
 -23.670  0.204E-02  0.204E-02
 -23.660  0.210E-02  0.210E-02
 -23.650  0.217E-02  0.217E-02
 -23.640  0.224E-02  0.224E-02
 -23.630  0.232E-02  0.232E-02
 -23.620  0.239E-02  0.239E-02
 -23.610  0.246E-02  0.246E-02
 -23.600  0.253E-02  0.253E-02
 -23.590  0.260E-02  0.260E-02
 -23.580  0.268E-02  0.268E-02
 -23.570  0.275E-02  0.275E-02
 -23.560  0.282E-02  0.282E-02
 -23.550  0.290E-02  0.290E-02
 -23.540  0.297E-02  0.297E-02
 -23.530  0.304E-02  0.304E-02
 -23.520  0.311E-02  0.311E-02
 -23.510  0.318E-02  0.318E-02
 -23.500  0.326E-02  0.326E-02
 -23.490  0.333E-02  0.333E-02
 -23.480  0.340E-02  0.340E-02
 -23.470  0.346E-02  0.346E-02
 -23.460  0.353E-02  0.353E-02
 -23.450  0.360E-02  0.360E-02
 -23.440  0.366E-02  0.366E-02
 -23.430  0.372E-02  0.372E-02
 -23.420  0.379E-02  0.379E-02
 -23.410  0.385E-02  0.385E-02
 -23.400  0.390E-02  0.390E-02
 -23.390  0.396E-02  0.396E-02
 -23.380  0.401E-02  0.401E-02
 -23.370  0.406E-02  0.406E-02
 -23.360  0.411E-02  0.411E-02
 -23.350  0.416E-02  0.416E-02
 -23.340  0.420E-02  0.420E-02
 -23.330  0.424E-02  0.424E-02
 -23.320  0.428E-02  0.428E-02
 -23.310  0.432E-02  0.432E-02
 -23.300  0.435E-02  0.435E-02
 -23.290  0.438E-02  0.438E-02
 -23.280  0.441E-02  0.441E-02
 -23.270  0.443E-02  0.443E-02
 -23.260  0.445E-02  0.445E-02
 -23.250  0.447E-02  0.447E-02
 -23.240  0.448E-02  0.448E-02
 -23.230  0.449E-02  0.449E-02
 -23.220  0.449E-02  0.449E-02
 -23.210  0.450E-02  0.450E-02
 -23.200  0.449E-02  0.449E-02
 -23.190  0.449E-02  0.449E-02
 -23.180  0.448E-02  0.448E-02
 -23.170  0.447E-02  0.447E-02
 -23.160  0.445E-02  0.445E-02
 -23.150  0.443E-02  0.443E-02
 -23.140  0.441E-02  0.441E-02
 -23.130  0.438E-02  0.438E-02
 -23.120  0.435E-02  0.435E-02
 -23.110  0.432E-02  0.432E-02
 -23.100  0.428E-02  0.428E-02
 -23.090  0.424E-02  0.424E-02
 -23.080  0.420E-02  0.420E-02
 -23.070  0.415E-02  0.415E-02
 -23.060  0.410E-02  0.410E-02
 -23.050  0.404E-02  0.404E-02
 -23.040  0.398E-02  0.398E-02
 -23.030  0.392E-02  0.392E-02
 -23.020  0.386E-02  0.386E-02
 -23.010  0.380E-02  0.380E-02
 -23.000  0.373E-02  0.373E-02
 -22.990  0.366E-02  0.366E-02
 -22.980  0.358E-02  0.358E-02
 -22.970  0.351E-02  0.351E-02
 -22.960  0.343E-02  0.343E-02
 -22.950  0.335E-02  0.335E-02
 -22.940  0.327E-02  0.327E-02
 -22.930  0.318E-02  0.318E-02
 -22.920  0.310E-02  0.310E-02
 -22.910  0.301E-02  0.301E-02
 -22.900  0.292E-02  0.292E-02
 -22.890  0.283E-02  0.283E-02
 -22.880  0.274E-02  0.274E-02
 -22.870  0.265E-02  0.265E-02
 -22.860  0.256E-02  0.256E-02
 -22.850  0.247E-02  0.247E-02
 -22.840  0.238E-02  0.238E-02
 -22.830  0.229E-02  0.229E-02
 -22.820  0.219E-02  0.219E-02
 -22.810  0.210E-02  0.210E-02
 -22.800  0.201E-02  0.201E-02
 -22.790  0.192E-02  0.192E-02
 -22.780  0.182E-02  0.182E-02
 -22.770  0.173E-02  0.173E-02
 -22.760  0.164E-02  0.164E-02
 -22.750  0.155E-02  0.155E-02
 -22.740  0.147E-02  0.147E-02
 -22.730  0.138E-02  0.138E-02
 -22.720  0.129E-02  0.129E-02
 -22.710  0.121E-02  0.121E-02
 -22.700  0.113E-02  0.113E-02
 -22.690  0.104E-02  0.104E-02
 -22.680  0.965E-03  0.965E-03
 -22.670  0.887E-03  0.887E-03
 -22.660  0.811E-03  0.811E-03
 -22.650  0.737E-03  0.737E-03
 -22.640  0.665E-03  0.665E-03
 -22.630  0.595E-03  0.595E-03
 -22.620  0.527E-03  0.527E-03
 -22.610  0.461E-03  0.461E-03
 -22.600  0.398E-03  0.398E-03
 -22.590  0.336E-03  0.336E-03
 -22.580  0.277E-03  0.277E-03
 -22.570  0.220E-03  0.220E-03
 -22.560  0.166E-03  0.166E-03
 -22.550  0.114E-03  0.114E-03
 -22.540  0.640E-04  0.640E-04
 -22.530  0.165E-04  0.165E-04
 -22.520 -0.286E-04 -0.286E-04
 -22.510 -0.714E-04 -0.714E-04
 -22.500 -0.112E-03 -0.112E-03
 -22.490 -0.150E-03 -0.150E-03
 -22.480 -0.186E-03 -0.186E-03
 -22.470 -0.220E-03 -0.220E-03
 -22.460 -0.251E-03 -0.251E-03
 -22.450 -0.280E-03 -0.280E-03
 -22.440 -0.308E-03 -0.308E-03
 -22.430 -0.333E-03 -0.333E-03
 -22.420 -0.356E-03 -0.356E-03
 -22.410 -0.377E-03 -0.377E-03
 -22.400 -0.396E-03 -0.396E-03
 -22.390 -0.413E-03 -0.413E-03
 -22.380 -0.428E-03 -0.428E-03
 -22.370 -0.442E-03 -0.442E-03
 -22.360 -0.454E-03 -0.454E-03
 -22.350 -0.464E-03 -0.464E-03
 -22.340 -0.473E-03 -0.473E-03
 -22.330 -0.480E-03 -0.480E-03
 -22.320 -0.486E-03 -0.486E-03
 -22.310 -0.490E-03 -0.490E-03
 -22.300 -0.493E-03 -0.493E-03
 -22.290 -0.495E-03 -0.495E-03
 -22.280 -0.495E-03 -0.495E-03
 -22.270 -0.495E-03 -0.495E-03
 -22.260 -0.493E-03 -0.493E-03
 -22.250 -0.490E-03 -0.490E-03
 -22.240 -0.487E-03 -0.487E-03
 -22.230 -0.482E-03 -0.482E-03
 -22.220 -0.477E-03 -0.477E-03
 -22.210 -0.471E-03 -0.471E-03
 -22.200 -0.465E-03 -0.465E-03
 -22.190 -0.458E-03 -0.458E-03
 -22.180 -0.450E-03 -0.450E-03
 -22.170 -0.441E-03 -0.441E-03
 -22.160 -0.433E-03 -0.433E-03
 -22.150 -0.424E-03 -0.424E-03
 -22.140 -0.414E-03 -0.414E-03
 -22.130 -0.404E-03 -0.404E-03
 -22.120 -0.394E-03 -0.394E-03
 -22.110 -0.384E-03 -0.384E-03
 -22.100 -0.373E-03 -0.373E-03
 -22.090 -0.363E-03 -0.363E-03
 -22.080 -0.352E-03 -0.352E-03
 -22.070 -0.341E-03 -0.341E-03
 -22.060 -0.330E-03 -0.330E-03
 -22.050 -0.320E-03 -0.320E-03
 -22.040 -0.309E-03 -0.309E-03
 -22.030 -0.298E-03 -0.298E-03
 -22.020 -0.287E-03 -0.287E-03
 -22.010 -0.277E-03 -0.277E-03
 -22.000 -0.266E-03 -0.266E-03
 -21.990 -0.256E-03 -0.256E-03
 -21.980 -0.246E-03 -0.246E-03
 -21.970 -0.236E-03 -0.236E-03
 -21.960 -0.226E-03 -0.226E-03
 -21.950 -0.217E-03 -0.217E-03
 -21.940 -0.207E-03 -0.207E-03
 -21.930 -0.198E-03 -0.198E-03
 -21.920 -0.189E-03 -0.189E-03
 -21.910 -0.181E-03 -0.181E-03
 -21.900 -0.172E-03 -0.172E-03
 -21.890 -0.164E-03 -0.164E-03
 -21.880 -0.156E-03 -0.156E-03
 -21.870 -0.148E-03 -0.148E-03
 -21.860 -0.141E-03 -0.141E-03
 -21.850 -0.134E-03 -0.134E-03
 -21.840 -0.127E-03 -0.127E-03
 -21.830 -0.120E-03 -0.120E-03
 -21.820 -0.114E-03 -0.114E-03
 -21.810 -0.108E-03 -0.108E-03
 -21.800 -0.102E-03 -0.102E-03
 -21.790 -0.961E-04 -0.961E-04
 -21.780 -0.907E-04 -0.907E-04
 -21.770 -0.855E-04 -0.855E-04
 -21.760 -0.805E-04 -0.805E-04
 -21.750 -0.758E-04 -0.758E-04
 -21.740 -0.713E-04 -0.713E-04
 -21.730 -0.670E-04 -0.670E-04
 -21.720 -0.629E-04 -0.629E-04
 -21.710 -0.591E-04 -0.591E-04
 -21.700 -0.554E-04 -0.554E-04
 -21.690 -0.519E-04 -0.519E-04
 -21.680 -0.486E-04 -0.486E-04
 -21.670 -0.454E-04 -0.454E-04
 -21.660 -0.425E-04 -0.425E-04
 -21.650 -0.397E-04 -0.397E-04
 -21.640 -0.370E-04 -0.370E-04
 -21.630 -0.345E-04 -0.345E-04
 -21.620 -0.322E-04 -0.322E-04
 -21.610 -0.299E-04 -0.299E-04
 -21.600 -0.279E-04 -0.279E-04
 -21.590 -0.259E-04 -0.259E-04
 -21.580 -0.241E-04 -0.241E-04
 -21.570 -0.223E-04 -0.223E-04
 -21.560 -0.207E-04 -0.207E-04
 -21.550 -0.192E-04 -0.192E-04
 -21.540 -0.178E-04 -0.178E-04
 -21.530 -0.165E-04 -0.165E-04
 -21.520 -0.152E-04 -0.152E-04
 -21.510 -0.141E-04 -0.141E-04
 -21.500 -0.130E-04 -0.130E-04
 -21.490 -0.120E-04 -0.120E-04
 -21.480 -0.110E-04 -0.110E-04
 -21.470 -0.102E-04 -0.102E-04
 -21.460 -0.937E-05 -0.937E-05
 -21.450 -0.862E-05 -0.862E-05
 -21.440 -0.793E-05 -0.793E-05
 -21.430 -0.728E-05 -0.728E-05
 -21.420 -0.669E-05 -0.669E-05
 -21.410 -0.613E-05 -0.613E-05
 -21.400 -0.562E-05 -0.562E-05
 -21.390 -0.515E-05 -0.515E-05
 -21.380 -0.471E-05 -0.471E-05
 -21.370 -0.431E-05 -0.431E-05
 -21.360 -0.394E-05 -0.394E-05
 -21.350 -0.360E-05 -0.360E-05
 -21.340 -0.329E-05 -0.329E-05
 -21.330 -0.300E-05 -0.300E-05
 -21.320 -0.273E-05 -0.273E-05
 -21.310 -0.249E-05 -0.249E-05
 -21.300 -0.226E-05 -0.226E-05
 -21.290 -0.206E-05 -0.206E-05
 -21.280 -0.187E-05 -0.187E-05
 -21.270 -0.170E-05 -0.170E-05
 -21.260 -0.154E-05 -0.154E-05
 -21.250 -0.140E-05 -0.140E-05
 -21.240 -0.127E-05 -0.127E-05
 -21.230 -0.115E-05 -0.115E-05
 -21.220 -0.104E-05 -0.104E-05
 -21.210 -0.939E-06 -0.939E-06
 -21.200 -0.848E-06 -0.848E-06
 -21.190 -0.766E-06 -0.766E-06
 -21.180 -0.691E-06 -0.691E-06
 -21.170 -0.623E-06 -0.623E-06
 -21.160 -0.561E-06 -0.561E-06
 -21.150 -0.506E-06 -0.506E-06
 -21.140 -0.455E-06 -0.455E-06
 -21.130 -0.409E-06 -0.409E-06
 -21.120 -0.367E-06 -0.367E-06
 -21.110 -0.330E-06 -0.330E-06
 -21.100 -0.296E-06 -0.296E-06
 -21.090 -0.265E-06 -0.265E-06
 -21.080 -0.238E-06 -0.238E-06
 -21.070 -0.213E-06 -0.213E-06
 -21.060 -0.190E-06 -0.190E-06
 -21.050 -0.170E-06 -0.170E-06
 -21.040 -0.152E-06 -0.152E-06
 -21.030 -0.136E-06 -0.136E-06
 -21.020 -0.121E-06 -0.121E-06
 -21.010 -0.108E-06 -0.108E-06
 -21.000 -0.963E-07 -0.963E-07
 -20.990 -0.857E-07 -0.857E-07
 -20.980 -0.763E-07 -0.763E-07
 -20.970 -0.678E-07 -0.678E-07
 -20.960 -0.603E-07 -0.603E-07
 -20.950 -0.535E-07 -0.535E-07
 -20.940 -0.475E-07 -0.475E-07
 -20.930 -0.421E-07 -0.421E-07
 -20.920 -0.373E-07 -0.373E-07
 -20.910 -0.330E-07 -0.330E-07
 -20.900 -0.292E-07 -0.292E-07
 -20.890 -0.258E-07 -0.258E-07
 -20.880 -0.228E-07 -0.228E-07
 -20.870 -0.201E-07 -0.201E-07
 -20.860 -0.178E-07 -0.178E-07
 -20.850 -0.157E-07 -0.157E-07
 -20.840 -0.138E-07 -0.138E-07
 -20.830 -0.122E-07 -0.122E-07
 -20.820 -0.107E-07 -0.107E-07
 -20.810 -0.940E-08 -0.940E-08
 -20.800 -0.825E-08 -0.825E-08
 -20.790 -0.724E-08 -0.724E-08
 -20.780 -0.635E-08 -0.635E-08
 -20.770 -0.556E-08 -0.556E-08
 -20.760 -0.486E-08 -0.486E-08
 -20.750 -0.425E-08 -0.425E-08
 -20.740 -0.372E-08 -0.372E-08
 -20.730 -0.325E-08 -0.325E-08
 -20.720 -0.284E-08 -0.284E-08
 -20.710 -0.248E-08 -0.248E-08
 -20.700 -0.216E-08 -0.216E-08
 -20.690 -0.189E-08 -0.189E-08
 -20.680 -0.164E-08 -0.164E-08
 -20.670 -0.143E-08 -0.143E-08
 -20.660 -0.124E-08 -0.124E-08
 -20.650 -0.108E-08 -0.108E-08
 -20.640 -0.933E-09 -0.933E-09
 -20.630 -0.809E-09 -0.809E-09
 -20.620 -0.700E-09 -0.700E-09
 -20.610 -0.605E-09 -0.605E-09
 -20.600 -0.523E-09 -0.523E-09
 -20.590 -0.451E-09 -0.451E-09
 -20.580 -0.384E-09 -0.384E-09
 -20.570 -0.328E-09 -0.328E-09
 -20.560 -0.282E-09 -0.282E-09
 -20.550 -0.243E-09 -0.243E-09
 -20.540 -0.208E-09 -0.208E-09
 -20.530 -0.173E-09 -0.173E-09
 -20.520 -0.142E-09 -0.142E-09
 -20.510 -0.121E-09 -0.121E-09
 -20.500 -0.104E-09 -0.104E-09
 -20.490 -0.886E-10 -0.886E-10
 -20.480 -0.740E-10 -0.740E-10
 -20.470 -0.603E-10 -0.603E-10
 -20.460 -0.485E-10 -0.485E-10
 -20.450 -0.375E-10 -0.375E-10
 -20.440 -0.271E-10 -0.271E-10
 -20.430 -0.162E-10 -0.162E-10
 -20.420 -0.312E-11 -0.312E-11
 -20.410 -0.147E-11 -0.147E-11
 -20.400 -0.126E-11 -0.126E-11
 -20.390 -0.107E-11 -0.107E-11
 -20.380 -0.877E-12 -0.877E-12
 -20.370 -0.668E-12 -0.668E-12
 -20.360 -0.358E-12 -0.358E-12
 -20.350 -0.140E-12 -0.140E-12
 -20.340 -0.174E-13 -0.174E-13
 -20.330  0.000E+00  0.000E+00
 -20.320  0.000E+00  0.000E+00
 -20.310  0.000E+00  0.000E+00
 -20.300  0.000E+00  0.000E+00
 -20.290  0.000E+00  0.000E+00
 -20.280  0.000E+00  0.000E+00
 -20.270  0.000E+00  0.000E+00
 -20.260  0.000E+00  0.000E+00
 -20.250  0.000E+00  0.000E+00
 -20.240  0.000E+00  0.000E+00
 -20.230  0.000E+00  0.000E+00
 -20.220  0.000E+00  0.000E+00
 -20.210  0.000E+00  0.000E+00
 -20.200  0.000E+00  0.000E+00
 -20.190  0.000E+00  0.000E+00
 -20.180  0.000E+00  0.000E+00
 -20.170  0.000E+00  0.000E+00
 -20.160  0.000E+00  0.000E+00
 -20.150  0.000E+00  0.000E+00
 -20.140  0.000E+00  0.000E+00
 -20.130  0.000E+00  0.000E+00
 -20.120  0.000E+00  0.000E+00
 -20.110  0.000E+00  0.000E+00
 -20.100  0.000E+00  0.000E+00
 -20.090  0.000E+00  0.000E+00
 -20.080  0.000E+00  0.000E+00
 -20.070  0.000E+00  0.000E+00
 -20.060  0.000E+00  0.000E+00
 -20.050  0.000E+00  0.000E+00
 -20.040  0.000E+00  0.000E+00
 -20.030  0.000E+00  0.000E+00
 -20.020  0.000E+00  0.000E+00
 -20.010  0.000E+00  0.000E+00
 -20.000  0.000E+00  0.000E+00
 -19.990  0.000E+00  0.000E+00
 -19.980  0.000E+00  0.000E+00
 -19.970  0.000E+00  0.000E+00
 -19.960  0.000E+00  0.000E+00
 -19.950  0.000E+00  0.000E+00
 -19.940  0.000E+00  0.000E+00
 -19.930  0.000E+00  0.000E+00
 -19.920  0.000E+00  0.000E+00
 -19.910  0.000E+00  0.000E+00
 -19.900  0.000E+00  0.000E+00
 -19.890  0.000E+00  0.000E+00
 -19.880  0.000E+00  0.000E+00
 -19.870  0.000E+00  0.000E+00
 -19.860  0.000E+00  0.000E+00
 -19.850  0.000E+00  0.000E+00
 -19.840  0.000E+00  0.000E+00
 -19.830  0.000E+00  0.000E+00
 -19.820  0.000E+00  0.000E+00
 -19.810  0.000E+00  0.000E+00
 -19.800  0.000E+00  0.000E+00
 -19.790  0.000E+00  0.000E+00
 -19.780  0.000E+00  0.000E+00
 -19.770  0.000E+00  0.000E+00
 -19.760  0.000E+00  0.000E+00
 -19.750  0.000E+00  0.000E+00
 -19.740  0.000E+00  0.000E+00
 -19.730  0.000E+00  0.000E+00
 -19.720  0.000E+00  0.000E+00
 -19.710  0.000E+00  0.000E+00
 -19.700  0.000E+00  0.000E+00
 -19.690  0.000E+00  0.000E+00
 -19.680  0.000E+00  0.000E+00
 -19.670  0.000E+00  0.000E+00
 -19.660  0.000E+00  0.000E+00
 -19.650  0.000E+00  0.000E+00
 -19.640  0.000E+00  0.000E+00
 -19.630  0.000E+00  0.000E+00
 -19.620  0.000E+00  0.000E+00
 -19.610  0.000E+00  0.000E+00
 -19.600  0.000E+00  0.000E+00
 -19.590  0.000E+00  0.000E+00
 -19.580  0.000E+00  0.000E+00
 -19.570  0.000E+00  0.000E+00
 -19.560  0.000E+00  0.000E+00
 -19.550  0.000E+00  0.000E+00
 -19.540  0.000E+00  0.000E+00
 -19.530  0.000E+00  0.000E+00
 -19.520  0.000E+00  0.000E+00
 -19.510  0.000E+00  0.000E+00
 -19.500  0.000E+00  0.000E+00
 -19.490  0.000E+00  0.000E+00
 -19.480  0.000E+00  0.000E+00
 -19.470  0.000E+00  0.000E+00
 -19.460  0.000E+00  0.000E+00
 -19.450  0.000E+00  0.000E+00
 -19.440  0.000E+00  0.000E+00
 -19.430  0.000E+00  0.000E+00
 -19.420  0.000E+00  0.000E+00
 -19.410  0.000E+00  0.000E+00
 -19.400  0.000E+00  0.000E+00
 -19.390  0.000E+00  0.000E+00
 -19.380  0.000E+00  0.000E+00
 -19.370  0.000E+00  0.000E+00
 -19.360  0.000E+00  0.000E+00
 -19.350  0.000E+00  0.000E+00
 -19.340  0.000E+00  0.000E+00
 -19.330  0.000E+00  0.000E+00
 -19.320  0.000E+00  0.000E+00
 -19.310  0.000E+00  0.000E+00
 -19.300  0.000E+00  0.000E+00
 -19.290  0.000E+00  0.000E+00
 -19.280  0.000E+00  0.000E+00
 -19.270  0.000E+00  0.000E+00
 -19.260  0.000E+00  0.000E+00
 -19.250  0.000E+00  0.000E+00
 -19.240  0.000E+00  0.000E+00
 -19.230  0.000E+00  0.000E+00
 -19.220  0.000E+00  0.000E+00
 -19.210  0.000E+00  0.000E+00
 -19.200  0.000E+00  0.000E+00
 -19.190  0.000E+00  0.000E+00
 -19.180  0.000E+00  0.000E+00
 -19.170  0.000E+00  0.000E+00
 -19.160  0.000E+00  0.000E+00
 -19.150  0.000E+00  0.000E+00
 -19.140  0.000E+00  0.000E+00
 -19.130  0.000E+00  0.000E+00
 -19.120  0.000E+00  0.000E+00
 -19.110  0.000E+00  0.000E+00
 -19.100  0.000E+00  0.000E+00
 -19.090  0.000E+00  0.000E+00
 -19.080  0.000E+00  0.000E+00
 -19.070  0.000E+00  0.000E+00
 -19.060  0.000E+00  0.000E+00
 -19.050  0.000E+00  0.000E+00
 -19.040  0.000E+00  0.000E+00
 -19.030  0.000E+00  0.000E+00
 -19.020  0.000E+00  0.000E+00
 -19.010  0.000E+00  0.000E+00
 -19.000  0.000E+00  0.000E+00
 -18.990  0.000E+00  0.000E+00
 -18.980  0.000E+00  0.000E+00
 -18.970  0.000E+00  0.000E+00
 -18.960  0.000E+00  0.000E+00
 -18.950  0.000E+00  0.000E+00
 -18.940  0.000E+00  0.000E+00
 -18.930  0.000E+00  0.000E+00
 -18.920  0.000E+00  0.000E+00
 -18.910  0.000E+00  0.000E+00
 -18.900  0.000E+00  0.000E+00
 -18.890  0.000E+00  0.000E+00
 -18.880  0.000E+00  0.000E+00
 -18.870  0.000E+00  0.000E+00
 -18.860  0.000E+00  0.000E+00
 -18.850  0.000E+00  0.000E+00
 -18.840  0.000E+00  0.000E+00
 -18.830  0.000E+00  0.000E+00
 -18.820  0.000E+00  0.000E+00
 -18.810  0.000E+00  0.000E+00
 -18.800  0.000E+00  0.000E+00
 -18.790  0.000E+00  0.000E+00
 -18.780  0.000E+00  0.000E+00
 -18.770  0.000E+00  0.000E+00
 -18.760  0.000E+00  0.000E+00
 -18.750  0.000E+00  0.000E+00
 -18.740  0.000E+00  0.000E+00
 -18.730  0.000E+00  0.000E+00
 -18.720  0.000E+00  0.000E+00
 -18.710  0.000E+00  0.000E+00
 -18.700  0.000E+00  0.000E+00
 -18.690  0.000E+00  0.000E+00
 -18.680  0.000E+00  0.000E+00
 -18.670  0.000E+00  0.000E+00
 -18.660  0.000E+00  0.000E+00
 -18.650  0.000E+00  0.000E+00
 -18.640  0.000E+00  0.000E+00
 -18.630  0.000E+00  0.000E+00
 -18.620  0.000E+00  0.000E+00
 -18.610  0.000E+00  0.000E+00
 -18.600  0.000E+00  0.000E+00
 -18.590  0.000E+00  0.000E+00
 -18.580  0.000E+00  0.000E+00
 -18.570  0.000E+00  0.000E+00
 -18.560  0.000E+00  0.000E+00
 -18.550  0.000E+00  0.000E+00
 -18.540  0.000E+00  0.000E+00
 -18.530  0.000E+00  0.000E+00
 -18.520  0.000E+00  0.000E+00
 -18.510  0.000E+00  0.000E+00
 -18.500  0.000E+00  0.000E+00
 -18.490  0.000E+00  0.000E+00
 -18.480  0.000E+00  0.000E+00
 -18.470  0.000E+00  0.000E+00
 -18.460  0.000E+00  0.000E+00
 -18.450  0.000E+00  0.000E+00
 -18.440  0.000E+00  0.000E+00
 -18.430  0.000E+00  0.000E+00
 -18.420  0.000E+00  0.000E+00
 -18.410  0.000E+00  0.000E+00
 -18.400  0.000E+00  0.000E+00
 -18.390  0.000E+00  0.000E+00
 -18.380  0.000E+00  0.000E+00
 -18.370  0.000E+00  0.000E+00
 -18.360  0.000E+00  0.000E+00
 -18.350  0.000E+00  0.000E+00
 -18.340  0.000E+00  0.000E+00
 -18.330  0.000E+00  0.000E+00
 -18.320  0.000E+00  0.000E+00
 -18.310  0.000E+00  0.000E+00
 -18.300  0.000E+00  0.000E+00
 -18.290  0.000E+00  0.000E+00
 -18.280  0.000E+00  0.000E+00
 -18.270  0.000E+00  0.000E+00
 -18.260  0.000E+00  0.000E+00
 -18.250  0.000E+00  0.000E+00
 -18.240  0.000E+00  0.000E+00
 -18.230  0.000E+00  0.000E+00
 -18.220  0.000E+00  0.000E+00
 -18.210  0.000E+00  0.000E+00
 -18.200  0.000E+00  0.000E+00
 -18.190  0.000E+00  0.000E+00
 -18.180  0.000E+00  0.000E+00
 -18.170  0.000E+00  0.000E+00
 -18.160  0.000E+00  0.000E+00
 -18.150  0.000E+00  0.000E+00
 -18.140  0.000E+00  0.000E+00
 -18.130  0.000E+00  0.000E+00
 -18.120  0.000E+00  0.000E+00
 -18.110  0.000E+00  0.000E+00
 -18.100  0.000E+00  0.000E+00
 -18.090  0.000E+00  0.000E+00
 -18.080  0.000E+00  0.000E+00
 -18.070  0.000E+00  0.000E+00
 -18.060  0.000E+00  0.000E+00
 -18.050  0.000E+00  0.000E+00
 -18.040  0.000E+00  0.000E+00
 -18.030  0.000E+00  0.000E+00
 -18.020  0.000E+00  0.000E+00
 -18.010  0.000E+00  0.000E+00
 -18.000  0.000E+00  0.000E+00
 -17.990  0.000E+00  0.000E+00
 -17.980  0.000E+00  0.000E+00
 -17.970  0.000E+00  0.000E+00
 -17.960  0.000E+00  0.000E+00
 -17.950  0.000E+00  0.000E+00
 -17.940  0.000E+00  0.000E+00
 -17.930  0.000E+00  0.000E+00
 -17.920  0.000E+00  0.000E+00
 -17.910  0.000E+00  0.000E+00
 -17.900  0.000E+00  0.000E+00
 -17.890  0.000E+00  0.000E+00
 -17.880  0.000E+00  0.000E+00
 -17.870  0.000E+00  0.000E+00
 -17.860  0.000E+00  0.000E+00
 -17.850  0.000E+00  0.000E+00
 -17.840  0.000E+00  0.000E+00
 -17.830  0.000E+00  0.000E+00
 -17.820  0.000E+00  0.000E+00
 -17.810  0.000E+00  0.000E+00
 -17.800  0.000E+00  0.000E+00
 -17.790  0.000E+00  0.000E+00
 -17.780  0.000E+00  0.000E+00
 -17.770  0.000E+00  0.000E+00
 -17.760  0.000E+00  0.000E+00
 -17.750  0.000E+00  0.000E+00
 -17.740  0.000E+00  0.000E+00
 -17.730  0.000E+00  0.000E+00
 -17.720  0.000E+00  0.000E+00
 -17.710  0.000E+00  0.000E+00
 -17.700  0.000E+00  0.000E+00
 -17.690  0.000E+00  0.000E+00
 -17.680  0.000E+00  0.000E+00
 -17.670  0.000E+00  0.000E+00
 -17.660  0.000E+00  0.000E+00
 -17.650  0.000E+00  0.000E+00
 -17.640  0.000E+00  0.000E+00
 -17.630  0.000E+00  0.000E+00
 -17.620  0.000E+00  0.000E+00
 -17.610  0.000E+00  0.000E+00
 -17.600  0.000E+00  0.000E+00
 -17.590  0.000E+00  0.000E+00
 -17.580  0.000E+00  0.000E+00
 -17.570  0.000E+00  0.000E+00
 -17.560  0.000E+00  0.000E+00
 -17.550  0.000E+00  0.000E+00
 -17.540  0.000E+00  0.000E+00
 -17.530  0.000E+00  0.000E+00
 -17.520  0.000E+00  0.000E+00
 -17.510  0.000E+00  0.000E+00
 -17.500  0.000E+00  0.000E+00
 -17.490  0.000E+00  0.000E+00
 -17.480  0.000E+00  0.000E+00
 -17.470  0.000E+00  0.000E+00
 -17.460  0.000E+00  0.000E+00
 -17.450  0.000E+00  0.000E+00
 -17.440  0.000E+00  0.000E+00
 -17.430  0.000E+00  0.000E+00
 -17.420  0.000E+00  0.000E+00
 -17.410  0.000E+00  0.000E+00
 -17.400  0.000E+00  0.000E+00
 -17.390  0.000E+00  0.000E+00
 -17.380  0.000E+00  0.000E+00
 -17.370  0.000E+00  0.000E+00
 -17.360  0.000E+00  0.000E+00
 -17.350  0.000E+00  0.000E+00
 -17.340  0.000E+00  0.000E+00
 -17.330  0.000E+00  0.000E+00
 -17.320  0.000E+00  0.000E+00
 -17.310  0.000E+00  0.000E+00
 -17.300  0.000E+00  0.000E+00
 -17.290  0.000E+00  0.000E+00
 -17.280  0.000E+00  0.000E+00
 -17.270  0.000E+00  0.000E+00
 -17.260  0.000E+00  0.000E+00
 -17.250  0.000E+00  0.000E+00
 -17.240  0.000E+00  0.000E+00
 -17.230  0.000E+00  0.000E+00
 -17.220  0.000E+00  0.000E+00
 -17.210  0.000E+00  0.000E+00
 -17.200  0.000E+00  0.000E+00
 -17.190  0.000E+00  0.000E+00
 -17.180  0.000E+00  0.000E+00
 -17.170  0.000E+00  0.000E+00
 -17.160  0.000E+00  0.000E+00
 -17.150  0.000E+00  0.000E+00
 -17.140  0.000E+00  0.000E+00
 -17.130  0.000E+00  0.000E+00
 -17.120  0.000E+00  0.000E+00
 -17.110  0.000E+00  0.000E+00
 -17.100  0.000E+00  0.000E+00
 -17.090  0.000E+00  0.000E+00
 -17.080  0.000E+00  0.000E+00
 -17.070  0.000E+00  0.000E+00
 -17.060  0.000E+00  0.000E+00
 -17.050  0.000E+00  0.000E+00
 -17.040  0.000E+00  0.000E+00
 -17.030  0.000E+00  0.000E+00
 -17.020  0.000E+00  0.000E+00
 -17.010  0.000E+00  0.000E+00
 -17.000  0.000E+00  0.000E+00
 -16.990  0.000E+00  0.000E+00
 -16.980  0.000E+00  0.000E+00
 -16.970  0.000E+00  0.000E+00
 -16.960  0.000E+00  0.000E+00
 -16.950  0.000E+00  0.000E+00
 -16.940  0.000E+00  0.000E+00
 -16.930  0.000E+00  0.000E+00
 -16.920  0.000E+00  0.000E+00
 -16.910  0.000E+00  0.000E+00
 -16.900  0.000E+00  0.000E+00
 -16.890  0.000E+00  0.000E+00
 -16.880  0.000E+00  0.000E+00
 -16.870  0.000E+00  0.000E+00
 -16.860  0.000E+00  0.000E+00
 -16.850  0.000E+00  0.000E+00
 -16.840  0.000E+00  0.000E+00
 -16.830  0.000E+00  0.000E+00
 -16.820  0.000E+00  0.000E+00
 -16.810  0.000E+00  0.000E+00
 -16.800  0.000E+00  0.000E+00
 -16.790  0.000E+00  0.000E+00
 -16.780  0.000E+00  0.000E+00
 -16.770  0.000E+00  0.000E+00
 -16.760  0.000E+00  0.000E+00
 -16.750  0.000E+00  0.000E+00
 -16.740  0.000E+00  0.000E+00
 -16.730  0.000E+00  0.000E+00
 -16.720  0.000E+00  0.000E+00
 -16.710  0.000E+00  0.000E+00
 -16.700  0.000E+00  0.000E+00
 -16.690  0.000E+00  0.000E+00
 -16.680  0.000E+00  0.000E+00
 -16.670  0.000E+00  0.000E+00
 -16.660  0.000E+00  0.000E+00
 -16.650  0.000E+00  0.000E+00
 -16.640  0.000E+00  0.000E+00
 -16.630  0.000E+00  0.000E+00
 -16.620  0.000E+00  0.000E+00
 -16.610  0.000E+00  0.000E+00
 -16.600  0.000E+00  0.000E+00
 -16.590  0.000E+00  0.000E+00
 -16.580  0.000E+00  0.000E+00
 -16.570  0.000E+00  0.000E+00
 -16.560  0.000E+00  0.000E+00
 -16.550  0.000E+00  0.000E+00
 -16.540  0.000E+00  0.000E+00
 -16.530  0.000E+00  0.000E+00
 -16.520  0.000E+00  0.000E+00
 -16.510  0.000E+00  0.000E+00
 -16.500  0.000E+00  0.000E+00
 -16.490  0.000E+00  0.000E+00
 -16.480  0.000E+00  0.000E+00
 -16.470  0.000E+00  0.000E+00
 -16.460  0.000E+00  0.000E+00
 -16.450  0.000E+00  0.000E+00
 -16.440  0.000E+00  0.000E+00
 -16.430  0.000E+00  0.000E+00
 -16.420  0.000E+00  0.000E+00
 -16.410  0.000E+00  0.000E+00
 -16.400  0.000E+00  0.000E+00
 -16.390  0.000E+00  0.000E+00
 -16.380  0.000E+00  0.000E+00
 -16.370  0.000E+00  0.000E+00
 -16.360  0.000E+00  0.000E+00
 -16.350  0.000E+00  0.000E+00
 -16.340  0.000E+00  0.000E+00
 -16.330  0.000E+00  0.000E+00
 -16.320  0.000E+00  0.000E+00
 -16.310  0.000E+00  0.000E+00
 -16.300  0.000E+00  0.000E+00
 -16.290  0.000E+00  0.000E+00
 -16.280  0.000E+00  0.000E+00
 -16.270  0.000E+00  0.000E+00
 -16.260  0.000E+00  0.000E+00
 -16.250  0.000E+00  0.000E+00
 -16.240  0.000E+00  0.000E+00
 -16.230  0.000E+00  0.000E+00
 -16.220  0.000E+00  0.000E+00
 -16.210  0.000E+00  0.000E+00
 -16.200  0.000E+00  0.000E+00
 -16.190  0.000E+00  0.000E+00
 -16.180  0.000E+00  0.000E+00
 -16.170  0.000E+00  0.000E+00
 -16.160  0.000E+00  0.000E+00
 -16.150  0.000E+00  0.000E+00
 -16.140  0.000E+00  0.000E+00
 -16.130  0.000E+00  0.000E+00
 -16.120  0.000E+00  0.000E+00
 -16.110  0.000E+00  0.000E+00
 -16.100  0.000E+00  0.000E+00
 -16.090  0.000E+00  0.000E+00
 -16.080  0.000E+00  0.000E+00
 -16.070  0.000E+00  0.000E+00
 -16.060  0.000E+00  0.000E+00
 -16.050  0.000E+00  0.000E+00
 -16.040  0.000E+00  0.000E+00
 -16.030  0.000E+00  0.000E+00
 -16.020  0.000E+00  0.000E+00
 -16.010  0.000E+00  0.000E+00
 -16.000  0.000E+00  0.000E+00
 -15.990  0.000E+00  0.000E+00
 -15.980  0.000E+00  0.000E+00
 -15.970  0.000E+00  0.000E+00
 -15.960  0.000E+00  0.000E+00
 -15.950  0.000E+00  0.000E+00
 -15.940  0.000E+00  0.000E+00
 -15.930  0.000E+00  0.000E+00
 -15.920  0.000E+00  0.000E+00
 -15.910  0.000E+00  0.000E+00
 -15.900  0.000E+00  0.000E+00
 -15.890  0.000E+00  0.000E+00
 -15.880  0.000E+00  0.000E+00
 -15.870  0.000E+00  0.000E+00
 -15.860  0.000E+00  0.000E+00
 -15.850  0.000E+00  0.000E+00
 -15.840  0.000E+00  0.000E+00
 -15.830  0.000E+00  0.000E+00
 -15.820  0.000E+00  0.000E+00
 -15.810  0.000E+00  0.000E+00
 -15.800  0.000E+00  0.000E+00
 -15.790  0.000E+00  0.000E+00
 -15.780  0.000E+00  0.000E+00
 -15.770  0.000E+00  0.000E+00
 -15.760  0.000E+00  0.000E+00
 -15.750  0.000E+00  0.000E+00
 -15.740  0.000E+00  0.000E+00
 -15.730  0.000E+00  0.000E+00
 -15.720  0.000E+00  0.000E+00
 -15.710  0.000E+00  0.000E+00
 -15.700  0.000E+00  0.000E+00
 -15.690  0.000E+00  0.000E+00
 -15.680  0.000E+00  0.000E+00
 -15.670  0.000E+00  0.000E+00
 -15.660  0.000E+00  0.000E+00
 -15.650  0.000E+00  0.000E+00
 -15.640  0.000E+00  0.000E+00
 -15.630  0.000E+00  0.000E+00
 -15.620  0.000E+00  0.000E+00
 -15.610  0.000E+00  0.000E+00
 -15.600  0.000E+00  0.000E+00
 -15.590  0.000E+00  0.000E+00
 -15.580  0.000E+00  0.000E+00
 -15.570  0.000E+00  0.000E+00
 -15.560  0.000E+00  0.000E+00
 -15.550  0.000E+00  0.000E+00
 -15.540  0.000E+00  0.000E+00
 -15.530  0.000E+00  0.000E+00
 -15.520  0.000E+00  0.000E+00
 -15.510  0.000E+00  0.000E+00
 -15.500  0.000E+00  0.000E+00
 -15.490  0.000E+00  0.000E+00
 -15.480  0.000E+00  0.000E+00
 -15.470  0.000E+00  0.000E+00
 -15.460  0.000E+00  0.000E+00
 -15.450  0.000E+00  0.000E+00
 -15.440  0.000E+00  0.000E+00
 -15.430  0.000E+00  0.000E+00
 -15.420  0.000E+00  0.000E+00
 -15.410  0.000E+00  0.000E+00
 -15.400  0.000E+00  0.000E+00
 -15.390  0.000E+00  0.000E+00
 -15.380  0.000E+00  0.000E+00
 -15.370  0.000E+00  0.000E+00
 -15.360  0.000E+00  0.000E+00
 -15.350  0.000E+00  0.000E+00
 -15.340  0.000E+00  0.000E+00
 -15.330  0.000E+00  0.000E+00
 -15.320  0.000E+00  0.000E+00
 -15.310  0.000E+00  0.000E+00
 -15.300  0.000E+00  0.000E+00
 -15.290  0.000E+00  0.000E+00
 -15.280  0.000E+00  0.000E+00
 -15.270  0.000E+00  0.000E+00
 -15.260  0.000E+00  0.000E+00
 -15.250  0.000E+00  0.000E+00
 -15.240  0.000E+00  0.000E+00
 -15.230  0.000E+00  0.000E+00
 -15.220  0.000E+00  0.000E+00
 -15.210  0.000E+00  0.000E+00
 -15.200  0.000E+00  0.000E+00
 -15.190  0.000E+00  0.000E+00
 -15.180  0.000E+00  0.000E+00
 -15.170  0.000E+00  0.000E+00
 -15.160  0.000E+00  0.000E+00
 -15.150  0.000E+00  0.000E+00
 -15.140  0.000E+00  0.000E+00
 -15.130  0.000E+00  0.000E+00
 -15.120  0.000E+00  0.000E+00
 -15.110  0.000E+00  0.000E+00
 -15.100  0.000E+00  0.000E+00
 -15.090  0.000E+00  0.000E+00
 -15.080  0.000E+00  0.000E+00
 -15.070  0.000E+00  0.000E+00
 -15.060  0.000E+00  0.000E+00
 -15.050  0.000E+00  0.000E+00
 -15.040  0.000E+00  0.000E+00
 -15.030  0.000E+00  0.000E+00
 -15.020  0.000E+00  0.000E+00
 -15.010  0.000E+00  0.000E+00
 -15.000  0.000E+00  0.000E+00
 -14.990  0.000E+00  0.000E+00
 -14.980  0.000E+00  0.000E+00
 -14.970  0.000E+00  0.000E+00
 -14.960  0.000E+00  0.000E+00
 -14.950  0.000E+00  0.000E+00
 -14.940  0.000E+00  0.000E+00
 -14.930  0.000E+00  0.000E+00
 -14.920  0.000E+00  0.000E+00
 -14.910  0.000E+00  0.000E+00
 -14.900  0.000E+00  0.000E+00
 -14.890  0.000E+00  0.000E+00
 -14.880  0.000E+00  0.000E+00
 -14.870  0.000E+00  0.000E+00
 -14.860  0.000E+00  0.000E+00
 -14.850  0.000E+00  0.000E+00
 -14.840  0.000E+00  0.000E+00
 -14.830  0.000E+00  0.000E+00
 -14.820  0.000E+00  0.000E+00
 -14.810  0.000E+00  0.000E+00
 -14.800  0.000E+00  0.000E+00
 -14.790  0.000E+00  0.000E+00
 -14.780  0.000E+00  0.000E+00
 -14.770  0.000E+00  0.000E+00
 -14.760  0.000E+00  0.000E+00
 -14.750  0.000E+00  0.000E+00
 -14.740  0.000E+00  0.000E+00
 -14.730  0.000E+00  0.000E+00
 -14.720  0.000E+00  0.000E+00
 -14.710  0.000E+00  0.000E+00
 -14.700  0.000E+00  0.000E+00
 -14.690  0.000E+00  0.000E+00
 -14.680  0.000E+00  0.000E+00
 -14.670  0.000E+00  0.000E+00
 -14.660  0.000E+00  0.000E+00
 -14.650  0.000E+00  0.000E+00
 -14.640  0.000E+00  0.000E+00
 -14.630  0.000E+00  0.000E+00
 -14.620  0.000E+00  0.000E+00
 -14.610  0.000E+00  0.000E+00
 -14.600  0.000E+00  0.000E+00
 -14.590  0.000E+00  0.000E+00
 -14.580  0.000E+00  0.000E+00
 -14.570  0.000E+00  0.000E+00
 -14.560  0.000E+00  0.000E+00
 -14.550  0.000E+00  0.000E+00
 -14.540  0.000E+00  0.000E+00
 -14.530  0.000E+00  0.000E+00
 -14.520  0.000E+00  0.000E+00
 -14.510  0.000E+00  0.000E+00
 -14.500  0.000E+00  0.000E+00
 -14.490  0.000E+00  0.000E+00
 -14.480  0.000E+00  0.000E+00
 -14.470  0.000E+00  0.000E+00
 -14.460  0.000E+00  0.000E+00
 -14.450  0.000E+00  0.000E+00
 -14.440  0.000E+00  0.000E+00
 -14.430  0.000E+00  0.000E+00
 -14.420  0.000E+00  0.000E+00
 -14.410  0.000E+00  0.000E+00
 -14.400  0.000E+00  0.000E+00
 -14.390  0.000E+00  0.000E+00
 -14.380  0.000E+00  0.000E+00
 -14.370  0.000E+00  0.000E+00
 -14.360  0.000E+00  0.000E+00
 -14.350  0.000E+00  0.000E+00
 -14.340  0.000E+00  0.000E+00
 -14.330  0.000E+00  0.000E+00
 -14.320  0.000E+00  0.000E+00
 -14.310  0.000E+00  0.000E+00
 -14.300  0.000E+00  0.000E+00
 -14.290  0.000E+00  0.000E+00
 -14.280  0.000E+00  0.000E+00
 -14.270  0.000E+00  0.000E+00
 -14.260  0.000E+00  0.000E+00
 -14.250  0.000E+00  0.000E+00
 -14.240  0.000E+00  0.000E+00
 -14.230  0.000E+00  0.000E+00
 -14.220  0.000E+00  0.000E+00
 -14.210  0.000E+00  0.000E+00
 -14.200  0.000E+00  0.000E+00
 -14.190  0.000E+00  0.000E+00
 -14.180  0.000E+00  0.000E+00
 -14.170  0.000E+00  0.000E+00
 -14.160  0.000E+00  0.000E+00
 -14.150  0.000E+00  0.000E+00
 -14.140  0.000E+00  0.000E+00
 -14.130  0.000E+00  0.000E+00
 -14.120  0.000E+00  0.000E+00
 -14.110  0.000E+00  0.000E+00
 -14.100  0.976E-16  0.976E-16
 -14.090  0.649E-15  0.649E-15
 -14.080  0.798E-15  0.798E-15
 -14.070  0.982E-15  0.982E-15
 -14.060  0.174E-14  0.174E-14
 -14.050  0.213E-14  0.213E-14
 -14.040  0.321E-14  0.321E-14
 -14.030  0.394E-14  0.394E-14
 -14.020  0.484E-14  0.484E-14
 -14.010  0.593E-14  0.593E-14
 -14.000  0.834E-14  0.834E-14
 -13.990  0.102E-13  0.102E-13
 -13.980  0.125E-13  0.125E-13
 -13.970  0.158E-13  0.158E-13
 -13.960  0.194E-13  0.194E-13
 -13.950  0.237E-13  0.237E-13
 -13.940  0.289E-13  0.289E-13
 -13.930  0.357E-13  0.357E-13
 -13.920  0.436E-13  0.436E-13
 -13.910  0.542E-13  0.542E-13
 -13.900  0.661E-13  0.661E-13
 -13.890  0.804E-13  0.804E-13
 -13.880  0.978E-13  0.978E-13
 -13.870  0.119E-12  0.119E-12
 -13.860  0.145E-12  0.145E-12
 -13.850  0.176E-12  0.176E-12
 -13.840  0.214E-12  0.214E-12
 -13.830  0.259E-12  0.259E-12
 -13.820  0.315E-12  0.315E-12
 -13.810  0.381E-12  0.381E-12
 -13.800  0.462E-12  0.462E-12
 -13.790  0.559E-12  0.559E-12
 -13.780  0.676E-12  0.676E-12
 -13.770  0.816E-12  0.816E-12
 -13.760  0.985E-12  0.985E-12
 -13.750  0.119E-11  0.119E-11
 -13.740  0.143E-11  0.143E-11
 -13.730  0.172E-11  0.172E-11
 -13.720  0.208E-11  0.208E-11
 -13.710  0.250E-11  0.250E-11
 -13.700  0.300E-11  0.300E-11
 -13.690  0.361E-11  0.361E-11
 -13.680  0.433E-11  0.433E-11
 -13.670  0.519E-11  0.519E-11
 -13.660  0.622E-11  0.622E-11
 -13.650  0.745E-11  0.745E-11
 -13.640  0.892E-11  0.892E-11
 -13.630  0.107E-10  0.107E-10
 -13.620  0.128E-10  0.128E-10
 -13.610  0.152E-10  0.152E-10
 -13.600  0.182E-10  0.182E-10
 -13.590  0.217E-10  0.217E-10
 -13.580  0.259E-10  0.259E-10
 -13.570  0.309E-10  0.309E-10
 -13.560  0.367E-10  0.367E-10
 -13.550  0.437E-10  0.437E-10
 -13.540  0.520E-10  0.520E-10
 -13.530  0.618E-10  0.618E-10
 -13.520  0.733E-10  0.733E-10
 -13.510  0.870E-10  0.870E-10
 -13.500  0.103E-09  0.103E-09
 -13.490  0.122E-09  0.122E-09
 -13.480  0.145E-09  0.145E-09
 -13.470  0.171E-09  0.171E-09
 -13.460  0.203E-09  0.203E-09
 -13.450  0.240E-09  0.240E-09
 -13.440  0.283E-09  0.283E-09
 -13.430  0.334E-09  0.334E-09
 -13.420  0.394E-09  0.394E-09
 -13.410  0.465E-09  0.465E-09
 -13.400  0.547E-09  0.547E-09
 -13.390  0.644E-09  0.644E-09
 -13.380  0.758E-09  0.758E-09
 -13.370  0.891E-09  0.891E-09
 -13.360  0.105E-08  0.105E-08
 -13.350  0.123E-08  0.123E-08
 -13.340  0.144E-08  0.144E-08
 -13.330  0.169E-08  0.169E-08
 -13.320  0.198E-08  0.198E-08
 -13.310  0.232E-08  0.232E-08
 -13.300  0.271E-08  0.271E-08
 -13.290  0.317E-08  0.317E-08
 -13.280  0.371E-08  0.371E-08
 -13.270  0.433E-08  0.433E-08
 -13.260  0.505E-08  0.505E-08
 -13.250  0.589E-08  0.589E-08
 -13.240  0.686E-08  0.686E-08
 -13.230  0.799E-08  0.799E-08
 -13.220  0.930E-08  0.930E-08
 -13.210  0.108E-07  0.108E-07
 -13.200  0.126E-07  0.126E-07
 -13.190  0.146E-07  0.146E-07
 -13.180  0.169E-07  0.169E-07
 -13.170  0.197E-07  0.197E-07
 -13.160  0.228E-07  0.228E-07
 -13.150  0.264E-07  0.264E-07
 -13.140  0.306E-07  0.306E-07
 -13.130  0.353E-07  0.353E-07
 -13.120  0.409E-07  0.409E-07
 -13.110  0.472E-07  0.472E-07
 -13.100  0.545E-07  0.545E-07
 -13.090  0.629E-07  0.629E-07
 -13.080  0.725E-07  0.725E-07
 -13.070  0.835E-07  0.835E-07
 -13.060  0.961E-07  0.961E-07
 -13.050  0.111E-06  0.111E-06
 -13.040  0.127E-06  0.127E-06
 -13.030  0.146E-06  0.146E-06
 -13.020  0.168E-06  0.168E-06
 -13.010  0.193E-06  0.193E-06
 -13.000  0.221E-06  0.221E-06
 -12.990  0.253E-06  0.253E-06
 -12.980  0.290E-06  0.290E-06
 -12.970  0.332E-06  0.332E-06
 -12.960  0.379E-06  0.379E-06
 -12.950  0.434E-06  0.434E-06
 -12.940  0.495E-06  0.495E-06
 -12.930  0.565E-06  0.565E-06
 -12.920  0.645E-06  0.645E-06
 -12.910  0.735E-06  0.735E-06
 -12.900  0.837E-06  0.837E-06
 -12.890  0.953E-06  0.953E-06
 -12.880  0.108E-05  0.108E-05
 -12.870  0.123E-05  0.123E-05
 -12.860  0.140E-05  0.140E-05
 -12.850  0.159E-05  0.159E-05
 -12.840  0.180E-05  0.180E-05
 -12.830  0.205E-05  0.205E-05
 -12.820  0.232E-05  0.232E-05
 -12.810  0.262E-05  0.262E-05
 -12.800  0.297E-05  0.297E-05
 -12.790  0.336E-05  0.336E-05
 -12.780  0.379E-05  0.379E-05
 -12.770  0.428E-05  0.428E-05
 -12.760  0.483E-05  0.483E-05
 -12.750  0.545E-05  0.545E-05
 -12.740  0.614E-05  0.614E-05
 -12.730  0.692E-05  0.692E-05
 -12.720  0.779E-05  0.779E-05
 -12.710  0.876E-05  0.876E-05
 -12.700  0.985E-05  0.985E-05
 -12.690  0.111E-04  0.111E-04
 -12.680  0.124E-04  0.124E-04
 -12.670  0.139E-04  0.139E-04
 -12.660  0.156E-04  0.156E-04
 -12.650  0.175E-04  0.175E-04
 -12.640  0.196E-04  0.196E-04
 -12.630  0.219E-04  0.219E-04
 -12.620  0.245E-04  0.245E-04
 -12.610  0.274E-04  0.274E-04
 -12.600  0.305E-04  0.305E-04
 -12.590  0.341E-04  0.341E-04
 -12.580  0.380E-04  0.380E-04
 -12.570  0.423E-04  0.423E-04
 -12.560  0.472E-04  0.472E-04
 -12.550  0.525E-04  0.525E-04
 -12.540  0.584E-04  0.584E-04
 -12.530  0.649E-04  0.649E-04
 -12.520  0.720E-04  0.720E-04
 -12.510  0.799E-04  0.799E-04
 -12.500  0.887E-04  0.887E-04
 -12.490  0.983E-04  0.983E-04
 -12.480  0.109E-03  0.109E-03
 -12.470  0.121E-03  0.121E-03
 -12.460  0.133E-03  0.133E-03
 -12.450  0.147E-03  0.147E-03
 -12.440  0.163E-03  0.163E-03
 -12.430  0.180E-03  0.180E-03
 -12.420  0.198E-03  0.198E-03
 -12.410  0.219E-03  0.219E-03
 -12.400  0.241E-03  0.241E-03
 -12.390  0.265E-03  0.265E-03
 -12.380  0.292E-03  0.292E-03
 -12.370  0.321E-03  0.321E-03
 -12.360  0.353E-03  0.353E-03
 -12.350  0.387E-03  0.387E-03
 -12.340  0.425E-03  0.425E-03
 -12.330  0.466E-03  0.466E-03
 -12.320  0.511E-03  0.511E-03
 -12.310  0.559E-03  0.559E-03
 -12.300  0.612E-03  0.612E-03
 -12.290  0.670E-03  0.670E-03
 -12.280  0.732E-03  0.732E-03
 -12.270  0.800E-03  0.800E-03
 -12.260  0.873E-03  0.873E-03
 -12.250  0.952E-03  0.952E-03
 -12.240  0.104E-02  0.104E-02
 -12.230  0.113E-02  0.113E-02
 -12.220  0.123E-02  0.123E-02
 -12.210  0.134E-02  0.134E-02
 -12.200  0.146E-02  0.146E-02
 -12.190  0.158E-02  0.158E-02
 -12.180  0.172E-02  0.172E-02
 -12.170  0.187E-02  0.187E-02
 -12.160  0.202E-02  0.202E-02
 -12.150  0.219E-02  0.219E-02
 -12.140  0.238E-02  0.238E-02
 -12.130  0.257E-02  0.257E-02
 -12.120  0.278E-02  0.278E-02
 -12.110  0.301E-02  0.301E-02
 -12.100  0.325E-02  0.325E-02
 -12.090  0.351E-02  0.351E-02
 -12.080  0.378E-02  0.378E-02
 -12.070  0.408E-02  0.408E-02
 -12.060  0.439E-02  0.439E-02
 -12.050  0.473E-02  0.473E-02
 -12.040  0.509E-02  0.509E-02
 -12.030  0.547E-02  0.547E-02
 -12.020  0.588E-02  0.588E-02
 -12.010  0.632E-02  0.632E-02
 -12.000  0.678E-02  0.678E-02
 -11.990  0.727E-02  0.727E-02
 -11.980  0.779E-02  0.779E-02
 -11.970  0.835E-02  0.835E-02
 -11.960  0.893E-02  0.893E-02
 -11.950  0.956E-02  0.956E-02
 -11.940  0.102E-01  0.102E-01
 -11.930  0.109E-01  0.109E-01
 -11.920  0.117E-01  0.117E-01
 -11.910  0.124E-01  0.124E-01
 -11.900  0.133E-01  0.133E-01
 -11.890  0.141E-01  0.141E-01
 -11.880  0.150E-01  0.150E-01
 -11.870  0.160E-01  0.160E-01
 -11.860  0.170E-01  0.170E-01
 -11.850  0.181E-01  0.181E-01
 -11.840  0.192E-01  0.192E-01
 -11.830  0.204E-01  0.204E-01
 -11.820  0.216E-01  0.216E-01
 -11.810  0.230E-01  0.230E-01
 -11.800  0.243E-01  0.243E-01
 -11.790  0.257E-01  0.257E-01
 -11.780  0.272E-01  0.272E-01
 -11.770  0.288E-01  0.288E-01
 -11.760  0.304E-01  0.304E-01
 -11.750  0.321E-01  0.321E-01
 -11.740  0.339E-01  0.339E-01
 -11.730  0.358E-01  0.358E-01
 -11.720  0.377E-01  0.377E-01
 -11.710  0.397E-01  0.397E-01
 -11.700  0.418E-01  0.418E-01
 -11.690  0.440E-01  0.440E-01
 -11.680  0.463E-01  0.463E-01
 -11.670  0.486E-01  0.486E-01
 -11.660  0.511E-01  0.511E-01
 -11.650  0.536E-01  0.536E-01
 -11.640  0.562E-01  0.562E-01
 -11.630  0.589E-01  0.589E-01
 -11.620  0.617E-01  0.617E-01
 -11.610  0.646E-01  0.646E-01
 -11.600  0.676E-01  0.676E-01
 -11.590  0.707E-01  0.707E-01
 -11.580  0.739E-01  0.739E-01
 -11.570  0.771E-01  0.771E-01
 -11.560  0.805E-01  0.805E-01
 -11.550  0.840E-01  0.840E-01
 -11.540  0.875E-01  0.875E-01
 -11.530  0.912E-01  0.912E-01
 -11.520  0.949E-01  0.949E-01
 -11.510  0.987E-01  0.987E-01
 -11.500  0.103E+00  0.103E+00
 -11.490  0.107E+00  0.107E+00
 -11.480  0.111E+00  0.111E+00
 -11.470  0.115E+00  0.115E+00
 -11.460  0.119E+00  0.119E+00
 -11.450  0.124E+00  0.124E+00
 -11.440  0.128E+00  0.128E+00
 -11.430  0.133E+00  0.133E+00
 -11.420  0.137E+00  0.137E+00
 -11.410  0.142E+00  0.142E+00
 -11.400  0.147E+00  0.147E+00
 -11.390  0.152E+00  0.152E+00
 -11.380  0.157E+00  0.157E+00
 -11.370  0.162E+00  0.162E+00
 -11.360  0.167E+00  0.167E+00
 -11.350  0.172E+00  0.172E+00
 -11.340  0.177E+00  0.177E+00
 -11.330  0.182E+00  0.182E+00
 -11.320  0.187E+00  0.187E+00
 -11.310  0.193E+00  0.193E+00
 -11.300  0.198E+00  0.198E+00
 -11.290  0.203E+00  0.203E+00
 -11.280  0.209E+00  0.209E+00
 -11.270  0.214E+00  0.214E+00
 -11.260  0.220E+00  0.220E+00
 -11.250  0.225E+00  0.225E+00
 -11.240  0.231E+00  0.231E+00
 -11.230  0.236E+00  0.236E+00
 -11.220  0.242E+00  0.242E+00
 -11.210  0.247E+00  0.247E+00
 -11.200  0.253E+00  0.253E+00
 -11.190  0.258E+00  0.258E+00
 -11.180  0.263E+00  0.263E+00
 -11.170  0.269E+00  0.269E+00
 -11.160  0.274E+00  0.274E+00
 -11.150  0.279E+00  0.279E+00
 -11.140  0.285E+00  0.285E+00
 -11.130  0.290E+00  0.290E+00
 -11.120  0.295E+00  0.295E+00
 -11.110  0.300E+00  0.300E+00
 -11.100  0.305E+00  0.305E+00
 -11.090  0.310E+00  0.310E+00
 -11.080  0.315E+00  0.315E+00
 -11.070  0.320E+00  0.320E+00
 -11.060  0.325E+00  0.325E+00
 -11.050  0.330E+00  0.330E+00
 -11.040  0.334E+00  0.334E+00
 -11.030  0.339E+00  0.339E+00
 -11.020  0.343E+00  0.343E+00
 -11.010  0.348E+00  0.348E+00
 -11.000  0.352E+00  0.352E+00
 -10.990  0.356E+00  0.356E+00
 -10.980  0.360E+00  0.360E+00
 -10.970  0.364E+00  0.364E+00
 -10.960  0.368E+00  0.368E+00
 -10.950  0.372E+00  0.372E+00
 -10.940  0.375E+00  0.375E+00
 -10.930  0.379E+00  0.379E+00
 -10.920  0.382E+00  0.382E+00
 -10.910  0.385E+00  0.385E+00
 -10.900  0.388E+00  0.388E+00
 -10.890  0.391E+00  0.391E+00
 -10.880  0.394E+00  0.394E+00
 -10.870  0.397E+00  0.397E+00
 -10.860  0.400E+00  0.400E+00
 -10.850  0.402E+00  0.402E+00
 -10.840  0.405E+00  0.405E+00
 -10.830  0.407E+00  0.407E+00
 -10.820  0.409E+00  0.409E+00
 -10.810  0.411E+00  0.411E+00
 -10.800  0.413E+00  0.413E+00
 -10.790  0.415E+00  0.415E+00
 -10.780  0.417E+00  0.417E+00
 -10.770  0.418E+00  0.418E+00
 -10.760  0.420E+00  0.420E+00
 -10.750  0.421E+00  0.421E+00
 -10.740  0.423E+00  0.423E+00
 -10.730  0.424E+00  0.424E+00
 -10.720  0.425E+00  0.425E+00
 -10.710  0.426E+00  0.426E+00
 -10.700  0.427E+00  0.427E+00
 -10.690  0.428E+00  0.428E+00
 -10.680  0.429E+00  0.429E+00
 -10.670  0.430E+00  0.430E+00
 -10.660  0.430E+00  0.430E+00
 -10.650  0.431E+00  0.431E+00
 -10.640  0.431E+00  0.431E+00
 -10.630  0.432E+00  0.432E+00
 -10.620  0.432E+00  0.432E+00
 -10.610  0.433E+00  0.433E+00
 -10.600  0.433E+00  0.433E+00
 -10.590  0.433E+00  0.433E+00
 -10.580  0.434E+00  0.434E+00
 -10.570  0.434E+00  0.434E+00
 -10.560  0.434E+00  0.434E+00
 -10.550  0.434E+00  0.434E+00
 -10.540  0.434E+00  0.434E+00
 -10.530  0.434E+00  0.434E+00
 -10.520  0.435E+00  0.435E+00
 -10.510  0.435E+00  0.435E+00
 -10.500  0.435E+00  0.435E+00
 -10.490  0.435E+00  0.435E+00
 -10.480  0.435E+00  0.435E+00
 -10.470  0.435E+00  0.435E+00
 -10.460  0.435E+00  0.435E+00
 -10.450  0.435E+00  0.435E+00
 -10.440  0.435E+00  0.435E+00
 -10.430  0.435E+00  0.435E+00
 -10.420  0.435E+00  0.435E+00
 -10.410  0.435E+00  0.435E+00
 -10.400  0.436E+00  0.436E+00
 -10.390  0.436E+00  0.436E+00
 -10.380  0.436E+00  0.436E+00
 -10.370  0.436E+00  0.436E+00
 -10.360  0.436E+00  0.436E+00
 -10.350  0.436E+00  0.436E+00
 -10.340  0.437E+00  0.437E+00
 -10.330  0.437E+00  0.437E+00
 -10.320  0.437E+00  0.437E+00
 -10.310  0.438E+00  0.438E+00
 -10.300  0.438E+00  0.438E+00
 -10.290  0.438E+00  0.438E+00
 -10.280  0.439E+00  0.439E+00
 -10.270  0.439E+00  0.439E+00
 -10.260  0.439E+00  0.439E+00
 -10.250  0.440E+00  0.440E+00
 -10.240  0.440E+00  0.440E+00
 -10.230  0.441E+00  0.441E+00
 -10.220  0.441E+00  0.441E+00
 -10.210  0.442E+00  0.442E+00
 -10.200  0.442E+00  0.442E+00
 -10.190  0.443E+00  0.443E+00
 -10.180  0.444E+00  0.444E+00
 -10.170  0.444E+00  0.444E+00
 -10.160  0.445E+00  0.445E+00
 -10.150  0.445E+00  0.445E+00
 -10.140  0.446E+00  0.446E+00
 -10.130  0.446E+00  0.446E+00
 -10.120  0.447E+00  0.447E+00
 -10.110  0.447E+00  0.447E+00
 -10.100  0.448E+00  0.448E+00
 -10.090  0.448E+00  0.448E+00
 -10.080  0.449E+00  0.449E+00
 -10.070  0.449E+00  0.449E+00
 -10.060  0.450E+00  0.450E+00
 -10.050  0.450E+00  0.450E+00
 -10.040  0.450E+00  0.450E+00
 -10.030  0.451E+00  0.451E+00
 -10.020  0.451E+00  0.451E+00
 -10.010  0.451E+00  0.451E+00
 -10.000  0.451E+00  0.451E+00
  -9.990  0.452E+00  0.452E+00
  -9.980  0.452E+00  0.452E+00
  -9.970  0.452E+00  0.452E+00
  -9.960  0.451E+00  0.451E+00
  -9.950  0.451E+00  0.451E+00
  -9.940  0.451E+00  0.451E+00
  -9.930  0.451E+00  0.451E+00
  -9.920  0.450E+00  0.450E+00
  -9.910  0.450E+00  0.450E+00
  -9.900  0.449E+00  0.449E+00
  -9.890  0.448E+00  0.448E+00
  -9.880  0.448E+00  0.448E+00
  -9.870  0.447E+00  0.447E+00
  -9.860  0.446E+00  0.446E+00
  -9.850  0.444E+00  0.444E+00
  -9.840  0.443E+00  0.443E+00
  -9.830  0.442E+00  0.442E+00
  -9.820  0.440E+00  0.440E+00
  -9.810  0.439E+00  0.439E+00
  -9.800  0.437E+00  0.437E+00
  -9.790  0.435E+00  0.435E+00
  -9.780  0.433E+00  0.433E+00
  -9.770  0.431E+00  0.431E+00
  -9.760  0.428E+00  0.428E+00
  -9.750  0.426E+00  0.426E+00
  -9.740  0.423E+00  0.423E+00
  -9.730  0.421E+00  0.421E+00
  -9.720  0.418E+00  0.418E+00
  -9.710  0.415E+00  0.415E+00
  -9.700  0.411E+00  0.411E+00
  -9.690  0.408E+00  0.408E+00
  -9.680  0.405E+00  0.405E+00
  -9.670  0.401E+00  0.401E+00
  -9.660  0.397E+00  0.397E+00
  -9.650  0.393E+00  0.393E+00
  -9.640  0.389E+00  0.389E+00
  -9.630  0.385E+00  0.385E+00
  -9.620  0.381E+00  0.381E+00
  -9.610  0.376E+00  0.376E+00
  -9.600  0.372E+00  0.372E+00
  -9.590  0.367E+00  0.367E+00
  -9.580  0.362E+00  0.362E+00
  -9.570  0.358E+00  0.358E+00
  -9.560  0.352E+00  0.352E+00
  -9.550  0.347E+00  0.347E+00
  -9.540  0.342E+00  0.342E+00
  -9.530  0.337E+00  0.337E+00
  -9.520  0.331E+00  0.331E+00
  -9.510  0.326E+00  0.326E+00
  -9.500  0.320E+00  0.320E+00
  -9.490  0.314E+00  0.314E+00
  -9.480  0.309E+00  0.309E+00
  -9.470  0.303E+00  0.303E+00
  -9.460  0.297E+00  0.297E+00
  -9.450  0.291E+00  0.291E+00
  -9.440  0.285E+00  0.285E+00
  -9.430  0.279E+00  0.279E+00
  -9.420  0.273E+00  0.273E+00
  -9.410  0.267E+00  0.267E+00
  -9.400  0.260E+00  0.260E+00
  -9.390  0.254E+00  0.254E+00
  -9.380  0.248E+00  0.248E+00
  -9.370  0.242E+00  0.242E+00
  -9.360  0.236E+00  0.236E+00
  -9.350  0.230E+00  0.230E+00
  -9.340  0.224E+00  0.224E+00
  -9.330  0.217E+00  0.217E+00
  -9.320  0.211E+00  0.211E+00
  -9.310  0.205E+00  0.205E+00
  -9.300  0.199E+00  0.199E+00
  -9.290  0.194E+00  0.194E+00
  -9.280  0.188E+00  0.188E+00
  -9.270  0.182E+00  0.182E+00
  -9.260  0.176E+00  0.176E+00
  -9.250  0.171E+00  0.171E+00
  -9.240  0.165E+00  0.165E+00
  -9.230  0.160E+00  0.160E+00
  -9.220  0.154E+00  0.154E+00
  -9.210  0.149E+00  0.149E+00
  -9.200  0.144E+00  0.144E+00
  -9.190  0.139E+00  0.139E+00
  -9.180  0.134E+00  0.134E+00
  -9.170  0.130E+00  0.130E+00
  -9.160  0.125E+00  0.125E+00
  -9.150  0.121E+00  0.121E+00
  -9.140  0.117E+00  0.117E+00
  -9.130  0.113E+00  0.113E+00
  -9.120  0.109E+00  0.109E+00
  -9.110  0.105E+00  0.105E+00
  -9.100  0.101E+00  0.101E+00
  -9.090  0.978E-01  0.978E-01
  -9.080  0.945E-01  0.945E-01
  -9.070  0.914E-01  0.914E-01
  -9.060  0.885E-01  0.885E-01
  -9.050  0.857E-01  0.857E-01
  -9.040  0.832E-01  0.832E-01
  -9.030  0.808E-01  0.808E-01
  -9.020  0.786E-01  0.786E-01
  -9.010  0.766E-01  0.766E-01
  -9.000  0.748E-01  0.748E-01
  -8.990  0.732E-01  0.732E-01
  -8.980  0.717E-01  0.717E-01
  -8.970  0.705E-01  0.705E-01
  -8.960  0.694E-01  0.694E-01
  -8.950  0.685E-01  0.685E-01
  -8.940  0.679E-01  0.679E-01
  -8.930  0.674E-01  0.674E-01
  -8.920  0.671E-01  0.671E-01
  -8.910  0.670E-01  0.670E-01
  -8.900  0.670E-01  0.670E-01
  -8.890  0.673E-01  0.673E-01
  -8.880  0.677E-01  0.677E-01
  -8.870  0.683E-01  0.683E-01
  -8.860  0.691E-01  0.691E-01
  -8.850  0.701E-01  0.701E-01
  -8.840  0.713E-01  0.713E-01
  -8.830  0.726E-01  0.726E-01
  -8.820  0.741E-01  0.741E-01
  -8.810  0.757E-01  0.757E-01
  -8.800  0.776E-01  0.776E-01
  -8.790  0.795E-01  0.795E-01
  -8.780  0.817E-01  0.817E-01
  -8.770  0.840E-01  0.840E-01
  -8.760  0.864E-01  0.864E-01
  -8.750  0.890E-01  0.890E-01
  -8.740  0.917E-01  0.917E-01
  -8.730  0.946E-01  0.946E-01
  -8.720  0.976E-01  0.976E-01
  -8.710  0.101E+00  0.101E+00
  -8.700  0.104E+00  0.104E+00
  -8.690  0.107E+00  0.107E+00
  -8.680  0.111E+00  0.111E+00
  -8.670  0.114E+00  0.114E+00
  -8.660  0.118E+00  0.118E+00
  -8.650  0.122E+00  0.122E+00
  -8.640  0.126E+00  0.126E+00
  -8.630  0.130E+00  0.130E+00
  -8.620  0.134E+00  0.134E+00
  -8.610  0.138E+00  0.138E+00
  -8.600  0.142E+00  0.142E+00
  -8.590  0.146E+00  0.146E+00
  -8.580  0.151E+00  0.151E+00
  -8.570  0.155E+00  0.155E+00
  -8.560  0.160E+00  0.160E+00
  -8.550  0.164E+00  0.164E+00
  -8.540  0.169E+00  0.169E+00
  -8.530  0.173E+00  0.173E+00
  -8.520  0.178E+00  0.178E+00
  -8.510  0.182E+00  0.182E+00
  -8.500  0.187E+00  0.187E+00
  -8.490  0.192E+00  0.192E+00
  -8.480  0.196E+00  0.196E+00
  -8.470  0.201E+00  0.201E+00
  -8.460  0.206E+00  0.206E+00
  -8.450  0.210E+00  0.210E+00
  -8.440  0.215E+00  0.215E+00
  -8.430  0.219E+00  0.219E+00
  -8.420  0.224E+00  0.224E+00
  -8.410  0.228E+00  0.228E+00
  -8.400  0.233E+00  0.233E+00
  -8.390  0.237E+00  0.237E+00
  -8.380  0.241E+00  0.241E+00
  -8.370  0.246E+00  0.246E+00
  -8.360  0.250E+00  0.250E+00
  -8.350  0.254E+00  0.254E+00
  -8.340  0.258E+00  0.258E+00
  -8.330  0.262E+00  0.262E+00
  -8.320  0.266E+00  0.266E+00
  -8.310  0.270E+00  0.270E+00
  -8.300  0.273E+00  0.273E+00
  -8.290  0.277E+00  0.277E+00
  -8.280  0.280E+00  0.280E+00
  -8.270  0.284E+00  0.284E+00
  -8.260  0.287E+00  0.287E+00
  -8.250  0.290E+00  0.290E+00
  -8.240  0.293E+00  0.293E+00
  -8.230  0.296E+00  0.296E+00
  -8.220  0.299E+00  0.299E+00
  -8.210  0.302E+00  0.302E+00
  -8.200  0.304E+00  0.304E+00
  -8.190  0.306E+00  0.306E+00
  -8.180  0.309E+00  0.309E+00
  -8.170  0.311E+00  0.311E+00
  -8.160  0.313E+00  0.313E+00
  -8.150  0.314E+00  0.314E+00
  -8.140  0.316E+00  0.316E+00
  -8.130  0.318E+00  0.318E+00
  -8.120  0.319E+00  0.319E+00
  -8.110  0.320E+00  0.320E+00
  -8.100  0.321E+00  0.321E+00
  -8.090  0.322E+00  0.322E+00
  -8.080  0.323E+00  0.323E+00
  -8.070  0.324E+00  0.324E+00
  -8.060  0.324E+00  0.324E+00
  -8.050  0.324E+00  0.324E+00
  -8.040  0.325E+00  0.325E+00
  -8.030  0.325E+00  0.325E+00
  -8.020  0.325E+00  0.325E+00
  -8.010  0.324E+00  0.324E+00
  -8.000  0.324E+00  0.324E+00
  -7.990  0.323E+00  0.323E+00
  -7.980  0.323E+00  0.323E+00
  -7.970  0.322E+00  0.322E+00
  -7.960  0.321E+00  0.321E+00
  -7.950  0.320E+00  0.320E+00
  -7.940  0.319E+00  0.319E+00
  -7.930  0.318E+00  0.318E+00
  -7.920  0.317E+00  0.317E+00
  -7.910  0.315E+00  0.315E+00
  -7.900  0.314E+00  0.314E+00
  -7.890  0.312E+00  0.312E+00
  -7.880  0.310E+00  0.310E+00
  -7.870  0.308E+00  0.308E+00
  -7.860  0.306E+00  0.306E+00
  -7.850  0.304E+00  0.304E+00
  -7.840  0.302E+00  0.302E+00
  -7.830  0.300E+00  0.300E+00
  -7.820  0.298E+00  0.298E+00
  -7.810  0.296E+00  0.296E+00
  -7.800  0.293E+00  0.293E+00
  -7.790  0.291E+00  0.291E+00
  -7.780  0.288E+00  0.288E+00
  -7.770  0.286E+00  0.286E+00
  -7.760  0.283E+00  0.283E+00
  -7.750  0.281E+00  0.281E+00
  -7.740  0.278E+00  0.278E+00
  -7.730  0.276E+00  0.276E+00
  -7.720  0.273E+00  0.273E+00
  -7.710  0.270E+00  0.270E+00
  -7.700  0.268E+00  0.268E+00
  -7.690  0.265E+00  0.265E+00
  -7.680  0.262E+00  0.262E+00
  -7.670  0.260E+00  0.260E+00
  -7.660  0.257E+00  0.257E+00
  -7.650  0.254E+00  0.254E+00
  -7.640  0.251E+00  0.251E+00
  -7.630  0.249E+00  0.249E+00
  -7.620  0.246E+00  0.246E+00
  -7.610  0.244E+00  0.244E+00
  -7.600  0.241E+00  0.241E+00
  -7.590  0.238E+00  0.238E+00
  -7.580  0.236E+00  0.236E+00
  -7.570  0.233E+00  0.233E+00
  -7.560  0.231E+00  0.231E+00
  -7.550  0.228E+00  0.228E+00
  -7.540  0.226E+00  0.226E+00
  -7.530  0.223E+00  0.223E+00
  -7.520  0.221E+00  0.221E+00
  -7.510  0.219E+00  0.219E+00
  -7.500  0.216E+00  0.216E+00
  -7.490  0.214E+00  0.214E+00
  -7.480  0.212E+00  0.212E+00
  -7.470  0.210E+00  0.210E+00
  -7.460  0.208E+00  0.208E+00
  -7.450  0.206E+00  0.206E+00
  -7.440  0.204E+00  0.204E+00
  -7.430  0.202E+00  0.202E+00
  -7.420  0.200E+00  0.200E+00
  -7.410  0.198E+00  0.198E+00
  -7.400  0.196E+00  0.196E+00
  -7.390  0.194E+00  0.194E+00
  -7.380  0.193E+00  0.193E+00
  -7.370  0.191E+00  0.191E+00
  -7.360  0.189E+00  0.189E+00
  -7.350  0.188E+00  0.188E+00
  -7.340  0.186E+00  0.186E+00
  -7.330  0.185E+00  0.185E+00
  -7.320  0.183E+00  0.183E+00
  -7.310  0.182E+00  0.182E+00
  -7.300  0.180E+00  0.180E+00
  -7.290  0.179E+00  0.179E+00
  -7.280  0.178E+00  0.178E+00
  -7.270  0.177E+00  0.177E+00
  -7.260  0.175E+00  0.175E+00
  -7.250  0.174E+00  0.174E+00
  -7.240  0.173E+00  0.173E+00
  -7.230  0.172E+00  0.172E+00
  -7.220  0.171E+00  0.171E+00
  -7.210  0.170E+00  0.170E+00
  -7.200  0.169E+00  0.169E+00
  -7.190  0.168E+00  0.168E+00
  -7.180  0.167E+00  0.167E+00
  -7.170  0.166E+00  0.166E+00
  -7.160  0.165E+00  0.165E+00
  -7.150  0.164E+00  0.164E+00
  -7.140  0.163E+00  0.163E+00
  -7.130  0.163E+00  0.163E+00
  -7.120  0.162E+00  0.162E+00
  -7.110  0.161E+00  0.161E+00
  -7.100  0.160E+00  0.160E+00
  -7.090  0.160E+00  0.160E+00
  -7.080  0.159E+00  0.159E+00
  -7.070  0.158E+00  0.158E+00
  -7.060  0.158E+00  0.158E+00
  -7.050  0.157E+00  0.157E+00
  -7.040  0.156E+00  0.156E+00
  -7.030  0.156E+00  0.156E+00
  -7.020  0.155E+00  0.155E+00
  -7.010  0.155E+00  0.155E+00
  -7.000  0.154E+00  0.154E+00
  -6.990  0.153E+00  0.153E+00
  -6.980  0.153E+00  0.153E+00
  -6.970  0.152E+00  0.152E+00
  -6.960  0.152E+00  0.152E+00
  -6.950  0.151E+00  0.151E+00
  -6.940  0.151E+00  0.151E+00
  -6.930  0.150E+00  0.150E+00
  -6.920  0.150E+00  0.150E+00
  -6.910  0.149E+00  0.149E+00
  -6.900  0.149E+00  0.149E+00
  -6.890  0.148E+00  0.148E+00
  -6.880  0.148E+00  0.148E+00
  -6.870  0.147E+00  0.147E+00
  -6.860  0.147E+00  0.147E+00
  -6.850  0.147E+00  0.147E+00
  -6.840  0.146E+00  0.146E+00
  -6.830  0.146E+00  0.146E+00
  -6.820  0.145E+00  0.145E+00
  -6.810  0.145E+00  0.145E+00
  -6.800  0.144E+00  0.144E+00
  -6.790  0.144E+00  0.144E+00
  -6.780  0.144E+00  0.144E+00
  -6.770  0.143E+00  0.143E+00
  -6.760  0.143E+00  0.143E+00
  -6.750  0.142E+00  0.142E+00
  -6.740  0.142E+00  0.142E+00
  -6.730  0.142E+00  0.142E+00
  -6.720  0.141E+00  0.141E+00
  -6.710  0.141E+00  0.141E+00
  -6.700  0.140E+00  0.140E+00
  -6.690  0.140E+00  0.140E+00
  -6.680  0.140E+00  0.140E+00
  -6.670  0.139E+00  0.139E+00
  -6.660  0.139E+00  0.139E+00
  -6.650  0.138E+00  0.138E+00
  -6.640  0.138E+00  0.138E+00
  -6.630  0.138E+00  0.138E+00
  -6.620  0.137E+00  0.137E+00
  -6.610  0.137E+00  0.137E+00
  -6.600  0.137E+00  0.137E+00
  -6.590  0.136E+00  0.136E+00
  -6.580  0.136E+00  0.136E+00
  -6.570  0.136E+00  0.136E+00
  -6.560  0.135E+00  0.135E+00
  -6.550  0.135E+00  0.135E+00
  -6.540  0.135E+00  0.135E+00
  -6.530  0.134E+00  0.134E+00
  -6.520  0.134E+00  0.134E+00
  -6.510  0.134E+00  0.134E+00
  -6.500  0.133E+00  0.133E+00
  -6.490  0.133E+00  0.133E+00
  -6.480  0.133E+00  0.133E+00
  -6.470  0.132E+00  0.132E+00
  -6.460  0.132E+00  0.132E+00
  -6.450  0.132E+00  0.132E+00
  -6.440  0.131E+00  0.131E+00
  -6.430  0.131E+00  0.131E+00
  -6.420  0.131E+00  0.131E+00
  -6.410  0.130E+00  0.130E+00
  -6.400  0.130E+00  0.130E+00
  -6.390  0.130E+00  0.130E+00
  -6.380  0.129E+00  0.129E+00
  -6.370  0.129E+00  0.129E+00
  -6.360  0.129E+00  0.129E+00
  -6.350  0.129E+00  0.129E+00
  -6.340  0.128E+00  0.128E+00
  -6.330  0.128E+00  0.128E+00
  -6.320  0.128E+00  0.128E+00
  -6.310  0.128E+00  0.128E+00
  -6.300  0.127E+00  0.127E+00
  -6.290  0.127E+00  0.127E+00
  -6.280  0.127E+00  0.127E+00
  -6.270  0.126E+00  0.126E+00
  -6.260  0.126E+00  0.126E+00
  -6.250  0.126E+00  0.126E+00
  -6.240  0.126E+00  0.126E+00
  -6.230  0.125E+00  0.125E+00
  -6.220  0.125E+00  0.125E+00
  -6.210  0.125E+00  0.125E+00
  -6.200  0.125E+00  0.125E+00
  -6.190  0.125E+00  0.125E+00
  -6.180  0.124E+00  0.124E+00
  -6.170  0.124E+00  0.124E+00
  -6.160  0.124E+00  0.124E+00
  -6.150  0.124E+00  0.124E+00
  -6.140  0.124E+00  0.124E+00
  -6.130  0.123E+00  0.123E+00
  -6.120  0.123E+00  0.123E+00
  -6.110  0.123E+00  0.123E+00
  -6.100  0.123E+00  0.123E+00
  -6.090  0.123E+00  0.123E+00
  -6.080  0.122E+00  0.122E+00
  -6.070  0.122E+00  0.122E+00
  -6.060  0.122E+00  0.122E+00
  -6.050  0.122E+00  0.122E+00
  -6.040  0.122E+00  0.122E+00
  -6.030  0.121E+00  0.121E+00
  -6.020  0.121E+00  0.121E+00
  -6.010  0.121E+00  0.121E+00
  -6.000  0.121E+00  0.121E+00
  -5.990  0.121E+00  0.121E+00
  -5.980  0.121E+00  0.121E+00
  -5.970  0.120E+00  0.120E+00
  -5.960  0.120E+00  0.120E+00
  -5.950  0.120E+00  0.120E+00
  -5.940  0.120E+00  0.120E+00
  -5.930  0.120E+00  0.120E+00
  -5.920  0.119E+00  0.119E+00
  -5.910  0.119E+00  0.119E+00
  -5.900  0.119E+00  0.119E+00
  -5.890  0.119E+00  0.119E+00
  -5.880  0.119E+00  0.119E+00
  -5.870  0.119E+00  0.119E+00
  -5.860  0.118E+00  0.118E+00
  -5.850  0.118E+00  0.118E+00
  -5.840  0.118E+00  0.118E+00
  -5.830  0.118E+00  0.118E+00
  -5.820  0.118E+00  0.118E+00
  -5.810  0.117E+00  0.117E+00
  -5.800  0.117E+00  0.117E+00
  -5.790  0.117E+00  0.117E+00
  -5.780  0.117E+00  0.117E+00
  -5.770  0.116E+00  0.116E+00
  -5.760  0.116E+00  0.116E+00
  -5.750  0.116E+00  0.116E+00
  -5.740  0.115E+00  0.115E+00
  -5.730  0.115E+00  0.115E+00
  -5.720  0.115E+00  0.115E+00
  -5.710  0.115E+00  0.115E+00
  -5.700  0.114E+00  0.114E+00
  -5.690  0.114E+00  0.114E+00
  -5.680  0.113E+00  0.113E+00
  -5.670  0.113E+00  0.113E+00
  -5.660  0.113E+00  0.113E+00
  -5.650  0.112E+00  0.112E+00
  -5.640  0.112E+00  0.112E+00
  -5.630  0.111E+00  0.111E+00
  -5.620  0.111E+00  0.111E+00
  -5.610  0.110E+00  0.110E+00
  -5.600  0.110E+00  0.110E+00
  -5.590  0.109E+00  0.109E+00
  -5.580  0.109E+00  0.109E+00
  -5.570  0.108E+00  0.108E+00
  -5.560  0.107E+00  0.107E+00
  -5.550  0.107E+00  0.107E+00
  -5.540  0.106E+00  0.106E+00
  -5.530  0.105E+00  0.105E+00
  -5.520  0.105E+00  0.105E+00
  -5.510  0.104E+00  0.104E+00
  -5.500  0.103E+00  0.103E+00
  -5.490  0.102E+00  0.102E+00
  -5.480  0.101E+00  0.101E+00
  -5.470  0.101E+00  0.101E+00
  -5.460  0.997E-01  0.997E-01
  -5.450  0.988E-01  0.988E-01
  -5.440  0.978E-01  0.978E-01
  -5.430  0.968E-01  0.968E-01
  -5.420  0.958E-01  0.958E-01
  -5.410  0.948E-01  0.948E-01
  -5.400  0.937E-01  0.937E-01
  -5.390  0.926E-01  0.926E-01
  -5.380  0.914E-01  0.914E-01
  -5.370  0.903E-01  0.903E-01
  -5.360  0.890E-01  0.890E-01
  -5.350  0.878E-01  0.878E-01
  -5.340  0.866E-01  0.866E-01
  -5.330  0.853E-01  0.853E-01
  -5.320  0.839E-01  0.839E-01
  -5.310  0.826E-01  0.826E-01
  -5.300  0.812E-01  0.812E-01
  -5.290  0.798E-01  0.798E-01
  -5.280  0.784E-01  0.784E-01
  -5.270  0.769E-01  0.769E-01
  -5.260  0.755E-01  0.755E-01
  -5.250  0.740E-01  0.740E-01
  -5.240  0.724E-01  0.724E-01
  -5.230  0.709E-01  0.709E-01
  -5.220  0.693E-01  0.693E-01
  -5.210  0.678E-01  0.678E-01
  -5.200  0.662E-01  0.662E-01
  -5.190  0.646E-01  0.646E-01
  -5.180  0.629E-01  0.629E-01
  -5.170  0.613E-01  0.613E-01
  -5.160  0.596E-01  0.596E-01
  -5.150  0.580E-01  0.580E-01
  -5.140  0.563E-01  0.563E-01
  -5.130  0.546E-01  0.546E-01
  -5.120  0.529E-01  0.529E-01
  -5.110  0.513E-01  0.513E-01
  -5.100  0.496E-01  0.496E-01
  -5.090  0.479E-01  0.479E-01
  -5.080  0.462E-01  0.462E-01
  -5.070  0.445E-01  0.445E-01
  -5.060  0.429E-01  0.429E-01
  -5.050  0.412E-01  0.412E-01
  -5.040  0.395E-01  0.395E-01
  -5.030  0.379E-01  0.379E-01
  -5.020  0.362E-01  0.362E-01
  -5.010  0.346E-01  0.346E-01
  -5.000  0.330E-01  0.330E-01
  -4.990  0.314E-01  0.314E-01
  -4.980  0.299E-01  0.299E-01
  -4.970  0.283E-01  0.283E-01
  -4.960  0.268E-01  0.268E-01
  -4.950  0.253E-01  0.253E-01
  -4.940  0.238E-01  0.238E-01
  -4.930  0.224E-01  0.224E-01
  -4.920  0.209E-01  0.209E-01
  -4.910  0.195E-01  0.195E-01
  -4.900  0.182E-01  0.182E-01
  -4.890  0.169E-01  0.169E-01
  -4.880  0.156E-01  0.156E-01
  -4.870  0.143E-01  0.143E-01
  -4.860  0.131E-01  0.131E-01
  -4.850  0.119E-01  0.119E-01
  -4.840  0.108E-01  0.108E-01
  -4.830  0.964E-02  0.964E-02
  -4.820  0.857E-02  0.857E-02
  -4.810  0.754E-02  0.754E-02
  -4.800  0.655E-02  0.655E-02
  -4.790  0.560E-02  0.560E-02
  -4.780  0.469E-02  0.469E-02
  -4.770  0.382E-02  0.382E-02
  -4.760  0.299E-02  0.299E-02
  -4.750  0.221E-02  0.221E-02
  -4.740  0.146E-02  0.146E-02
  -4.730  0.760E-03  0.760E-03
  -4.720  0.100E-03  0.100E-03
  -4.710 -0.518E-03 -0.518E-03
  -4.700 -0.110E-02 -0.110E-02
  -4.690 -0.163E-02 -0.163E-02
  -4.680 -0.213E-02 -0.213E-02
  -4.670 -0.258E-02 -0.258E-02
  -4.660 -0.300E-02 -0.300E-02
  -4.650 -0.337E-02 -0.337E-02
  -4.640 -0.371E-02 -0.371E-02
  -4.630 -0.401E-02 -0.401E-02
  -4.620 -0.428E-02 -0.428E-02
  -4.610 -0.450E-02 -0.450E-02
  -4.600 -0.469E-02 -0.469E-02
  -4.590 -0.485E-02 -0.485E-02
  -4.580 -0.497E-02 -0.497E-02
  -4.570 -0.507E-02 -0.507E-02
  -4.560 -0.513E-02 -0.513E-02
  -4.550 -0.515E-02 -0.515E-02
  -4.540 -0.515E-02 -0.515E-02
  -4.530 -0.512E-02 -0.512E-02
  -4.520 -0.507E-02 -0.507E-02
  -4.510 -0.498E-02 -0.498E-02
  -4.500 -0.487E-02 -0.487E-02
  -4.490 -0.474E-02 -0.474E-02
  -4.480 -0.459E-02 -0.459E-02
  -4.470 -0.441E-02 -0.441E-02
  -4.460 -0.421E-02 -0.421E-02
  -4.450 -0.399E-02 -0.399E-02
  -4.440 -0.376E-02 -0.376E-02
  -4.430 -0.350E-02 -0.350E-02
  -4.420 -0.323E-02 -0.323E-02
  -4.410 -0.295E-02 -0.295E-02
  -4.400 -0.265E-02 -0.265E-02
  -4.390 -0.234E-02 -0.234E-02
  -4.380 -0.201E-02 -0.201E-02
  -4.370 -0.168E-02 -0.168E-02
  -4.360 -0.133E-02 -0.133E-02
  -4.350 -0.975E-03 -0.975E-03
  -4.340 -0.611E-03 -0.611E-03
  -4.330 -0.239E-03 -0.239E-03
  -4.320  0.140E-03  0.140E-03
  -4.310  0.525E-03  0.525E-03
  -4.300  0.915E-03  0.915E-03
  -4.290  0.131E-02  0.131E-02
  -4.280  0.171E-02  0.171E-02
  -4.270  0.211E-02  0.211E-02
  -4.260  0.251E-02  0.251E-02
  -4.250  0.292E-02  0.292E-02
  -4.240  0.333E-02  0.333E-02
  -4.230  0.374E-02  0.374E-02
  -4.220  0.415E-02  0.415E-02
  -4.210  0.456E-02  0.456E-02
  -4.200  0.497E-02  0.497E-02
  -4.190  0.538E-02  0.538E-02
  -4.180  0.579E-02  0.579E-02
  -4.170  0.620E-02  0.620E-02
  -4.160  0.661E-02  0.661E-02
  -4.150  0.701E-02  0.701E-02
  -4.140  0.741E-02  0.741E-02
  -4.130  0.782E-02  0.782E-02
  -4.120  0.822E-02  0.822E-02
  -4.110  0.862E-02  0.862E-02
  -4.100  0.901E-02  0.901E-02
  -4.090  0.941E-02  0.941E-02
  -4.080  0.980E-02  0.980E-02
  -4.070  0.102E-01  0.102E-01
  -4.060  0.106E-01  0.106E-01
  -4.050  0.110E-01  0.110E-01
  -4.040  0.113E-01  0.113E-01
  -4.030  0.117E-01  0.117E-01
  -4.020  0.121E-01  0.121E-01
  -4.010  0.125E-01  0.125E-01
  -4.000  0.129E-01  0.129E-01
  -3.990  0.132E-01  0.132E-01
  -3.980  0.136E-01  0.136E-01
  -3.970  0.140E-01  0.140E-01
  -3.960  0.144E-01  0.144E-01
  -3.950  0.147E-01  0.147E-01
  -3.940  0.151E-01  0.151E-01
  -3.930  0.155E-01  0.155E-01
  -3.920  0.159E-01  0.159E-01
  -3.910  0.162E-01  0.162E-01
  -3.900  0.166E-01  0.166E-01
  -3.890  0.170E-01  0.170E-01
  -3.880  0.174E-01  0.174E-01
  -3.870  0.178E-01  0.178E-01
  -3.860  0.181E-01  0.181E-01
  -3.850  0.185E-01  0.185E-01
  -3.840  0.189E-01  0.189E-01
  -3.830  0.193E-01  0.193E-01
  -3.820  0.197E-01  0.197E-01
  -3.810  0.201E-01  0.201E-01
  -3.800  0.205E-01  0.205E-01
  -3.790  0.209E-01  0.209E-01
  -3.780  0.213E-01  0.213E-01
  -3.770  0.217E-01  0.217E-01
  -3.760  0.221E-01  0.221E-01
  -3.750  0.225E-01  0.225E-01
  -3.740  0.229E-01  0.229E-01
  -3.730  0.233E-01  0.233E-01
  -3.720  0.237E-01  0.237E-01
  -3.710  0.242E-01  0.242E-01
  -3.700  0.246E-01  0.246E-01
  -3.690  0.250E-01  0.250E-01
  -3.680  0.255E-01  0.255E-01
  -3.670  0.259E-01  0.259E-01
  -3.660  0.263E-01  0.263E-01
  -3.650  0.268E-01  0.268E-01
  -3.640  0.272E-01  0.272E-01
  -3.630  0.277E-01  0.277E-01
  -3.620  0.282E-01  0.282E-01
  -3.610  0.286E-01  0.286E-01
  -3.600  0.291E-01  0.291E-01
  -3.590  0.296E-01  0.296E-01
  -3.580  0.301E-01  0.301E-01
  -3.570  0.305E-01  0.305E-01
  -3.560  0.310E-01  0.310E-01
  -3.550  0.315E-01  0.315E-01
  -3.540  0.320E-01  0.320E-01
  -3.530  0.325E-01  0.325E-01
  -3.520  0.330E-01  0.330E-01
  -3.510  0.335E-01  0.335E-01
  -3.500  0.340E-01  0.340E-01
  -3.490  0.345E-01  0.345E-01
  -3.480  0.350E-01  0.350E-01
  -3.470  0.355E-01  0.355E-01
  -3.460  0.361E-01  0.361E-01
  -3.450  0.366E-01  0.366E-01
  -3.440  0.371E-01  0.371E-01
  -3.430  0.376E-01  0.376E-01
  -3.420  0.381E-01  0.381E-01
  -3.410  0.386E-01  0.386E-01
  -3.400  0.391E-01  0.391E-01
  -3.390  0.397E-01  0.397E-01
  -3.380  0.402E-01  0.402E-01
  -3.370  0.407E-01  0.407E-01
  -3.360  0.412E-01  0.412E-01
  -3.350  0.417E-01  0.417E-01
  -3.340  0.422E-01  0.422E-01
  -3.330  0.427E-01  0.427E-01
  -3.320  0.432E-01  0.432E-01
  -3.310  0.437E-01  0.437E-01
  -3.300  0.442E-01  0.442E-01
  -3.290  0.446E-01  0.446E-01
  -3.280  0.451E-01  0.451E-01
  -3.270  0.456E-01  0.456E-01
  -3.260  0.460E-01  0.460E-01
  -3.250  0.465E-01  0.465E-01
  -3.240  0.469E-01  0.469E-01
  -3.230  0.473E-01  0.473E-01
  -3.220  0.477E-01  0.477E-01
  -3.210  0.482E-01  0.482E-01
  -3.200  0.486E-01  0.486E-01
  -3.190  0.489E-01  0.489E-01
  -3.180  0.493E-01  0.493E-01
  -3.170  0.497E-01  0.497E-01
  -3.160  0.500E-01  0.500E-01
  -3.150  0.503E-01  0.503E-01
  -3.140  0.507E-01  0.507E-01
  -3.130  0.510E-01  0.510E-01
  -3.120  0.513E-01  0.513E-01
  -3.110  0.515E-01  0.515E-01
  -3.100  0.518E-01  0.518E-01
  -3.090  0.520E-01  0.520E-01
  -3.080  0.522E-01  0.522E-01
  -3.070  0.524E-01  0.524E-01
  -3.060  0.526E-01  0.526E-01
  -3.050  0.528E-01  0.528E-01
  -3.040  0.529E-01  0.529E-01
  -3.030  0.530E-01  0.530E-01
  -3.020  0.531E-01  0.531E-01
  -3.010  0.532E-01  0.532E-01
  -3.000  0.532E-01  0.532E-01
  -2.990  0.533E-01  0.533E-01
  -2.980  0.533E-01  0.533E-01
  -2.970  0.533E-01  0.533E-01
  -2.960  0.532E-01  0.532E-01
  -2.950  0.532E-01  0.532E-01
  -2.940  0.531E-01  0.531E-01
  -2.930  0.530E-01  0.530E-01
  -2.920  0.529E-01  0.529E-01
  -2.910  0.527E-01  0.527E-01
  -2.900  0.525E-01  0.525E-01
  -2.890  0.523E-01  0.523E-01
  -2.880  0.521E-01  0.521E-01
  -2.870  0.519E-01  0.519E-01
  -2.860  0.516E-01  0.516E-01
  -2.850  0.513E-01  0.513E-01
  -2.840  0.510E-01  0.510E-01
  -2.830  0.506E-01  0.506E-01
  -2.820  0.503E-01  0.503E-01
  -2.810  0.499E-01  0.499E-01
  -2.800  0.495E-01  0.495E-01
  -2.790  0.491E-01  0.491E-01
  -2.780  0.486E-01  0.486E-01
  -2.770  0.481E-01  0.481E-01
  -2.760  0.477E-01  0.477E-01
  -2.750  0.471E-01  0.471E-01
  -2.740  0.466E-01  0.466E-01
  -2.730  0.461E-01  0.461E-01
  -2.720  0.455E-01  0.455E-01
  -2.710  0.449E-01  0.449E-01
  -2.700  0.443E-01  0.443E-01
  -2.690  0.437E-01  0.437E-01
  -2.680  0.431E-01  0.431E-01
  -2.670  0.425E-01  0.425E-01
  -2.660  0.418E-01  0.418E-01
  -2.650  0.411E-01  0.411E-01
  -2.640  0.405E-01  0.405E-01
  -2.630  0.398E-01  0.398E-01
  -2.620  0.391E-01  0.391E-01
  -2.610  0.384E-01  0.384E-01
  -2.600  0.377E-01  0.377E-01
  -2.590  0.369E-01  0.369E-01
  -2.580  0.362E-01  0.362E-01
  -2.570  0.355E-01  0.355E-01
  -2.560  0.347E-01  0.347E-01
  -2.550  0.340E-01  0.340E-01
  -2.540  0.333E-01  0.333E-01
  -2.530  0.325E-01  0.325E-01
  -2.520  0.318E-01  0.318E-01
  -2.510  0.310E-01  0.310E-01
  -2.500  0.303E-01  0.303E-01
  -2.490  0.296E-01  0.296E-01
  -2.480  0.288E-01  0.288E-01
  -2.470  0.281E-01  0.281E-01
  -2.460  0.274E-01  0.274E-01
  -2.450  0.267E-01  0.267E-01
  -2.440  0.260E-01  0.260E-01
  -2.430  0.253E-01  0.253E-01
  -2.420  0.246E-01  0.246E-01
  -2.410  0.239E-01  0.239E-01
  -2.400  0.232E-01  0.232E-01
  -2.390  0.226E-01  0.226E-01
  -2.380  0.220E-01  0.220E-01
  -2.370  0.213E-01  0.213E-01
  -2.360  0.207E-01  0.207E-01
  -2.350  0.201E-01  0.201E-01
  -2.340  0.195E-01  0.195E-01
  -2.330  0.190E-01  0.190E-01
  -2.320  0.184E-01  0.184E-01
  -2.310  0.179E-01  0.179E-01
  -2.300  0.174E-01  0.174E-01
  -2.290  0.169E-01  0.169E-01
  -2.280  0.164E-01  0.164E-01
  -2.270  0.160E-01  0.160E-01
  -2.260  0.156E-01  0.156E-01
  -2.250  0.152E-01  0.152E-01
  -2.240  0.148E-01  0.148E-01
  -2.230  0.144E-01  0.144E-01
  -2.220  0.141E-01  0.141E-01
  -2.210  0.138E-01  0.138E-01
  -2.200  0.135E-01  0.135E-01
  -2.190  0.133E-01  0.133E-01
  -2.180  0.130E-01  0.130E-01
  -2.170  0.128E-01  0.128E-01
  -2.160  0.126E-01  0.126E-01
  -2.150  0.125E-01  0.125E-01
  -2.140  0.123E-01  0.123E-01
  -2.130  0.122E-01  0.122E-01
  -2.120  0.122E-01  0.122E-01
  -2.110  0.121E-01  0.121E-01
  -2.100  0.121E-01  0.121E-01
  -2.090  0.121E-01  0.121E-01
  -2.080  0.121E-01  0.121E-01
  -2.070  0.122E-01  0.122E-01
  -2.060  0.123E-01  0.123E-01
  -2.050  0.124E-01  0.124E-01
  -2.040  0.125E-01  0.125E-01
  -2.030  0.127E-01  0.127E-01
  -2.020  0.129E-01  0.129E-01
  -2.010  0.131E-01  0.131E-01
  -2.000  0.134E-01  0.134E-01
  -1.990  0.137E-01  0.137E-01
  -1.980  0.140E-01  0.140E-01
  -1.970  0.143E-01  0.143E-01
  -1.960  0.147E-01  0.147E-01
  -1.950  0.150E-01  0.150E-01
  -1.940  0.154E-01  0.154E-01
  -1.930  0.159E-01  0.159E-01
  -1.920  0.163E-01  0.163E-01
  -1.910  0.168E-01  0.168E-01
  -1.900  0.173E-01  0.173E-01
  -1.890  0.179E-01  0.179E-01
  -1.880  0.184E-01  0.184E-01
  -1.870  0.190E-01  0.190E-01
  -1.860  0.196E-01  0.196E-01
  -1.850  0.203E-01  0.203E-01
  -1.840  0.209E-01  0.209E-01
  -1.830  0.216E-01  0.216E-01
  -1.820  0.223E-01  0.223E-01
  -1.810  0.230E-01  0.230E-01
  -1.800  0.237E-01  0.237E-01
  -1.790  0.245E-01  0.245E-01
  -1.780  0.253E-01  0.253E-01
  -1.770  0.261E-01  0.261E-01
  -1.760  0.269E-01  0.269E-01
  -1.750  0.277E-01  0.277E-01
  -1.740  0.285E-01  0.285E-01
  -1.730  0.294E-01  0.294E-01
  -1.720  0.303E-01  0.303E-01
  -1.710  0.312E-01  0.312E-01
  -1.700  0.321E-01  0.321E-01
  -1.690  0.330E-01  0.330E-01
  -1.680  0.339E-01  0.339E-01
  -1.670  0.348E-01  0.348E-01
  -1.660  0.358E-01  0.358E-01
  -1.650  0.367E-01  0.367E-01
  -1.640  0.377E-01  0.377E-01
  -1.630  0.386E-01  0.386E-01
  -1.620  0.396E-01  0.396E-01
  -1.610  0.406E-01  0.406E-01
  -1.600  0.416E-01  0.416E-01
  -1.590  0.426E-01  0.426E-01
  -1.580  0.436E-01  0.436E-01
  -1.570  0.445E-01  0.445E-01
  -1.560  0.455E-01  0.455E-01
  -1.550  0.465E-01  0.465E-01
  -1.540  0.475E-01  0.475E-01
  -1.530  0.485E-01  0.485E-01
  -1.520  0.495E-01  0.495E-01
  -1.510  0.505E-01  0.505E-01
  -1.500  0.515E-01  0.515E-01
  -1.490  0.525E-01  0.525E-01
  -1.480  0.535E-01  0.535E-01
  -1.470  0.545E-01  0.545E-01
  -1.460  0.554E-01  0.554E-01
  -1.450  0.564E-01  0.564E-01
  -1.440  0.574E-01  0.574E-01
  -1.430  0.583E-01  0.583E-01
  -1.420  0.593E-01  0.593E-01
  -1.410  0.602E-01  0.602E-01
  -1.400  0.611E-01  0.611E-01
  -1.390  0.620E-01  0.620E-01
  -1.380  0.630E-01  0.630E-01
  -1.370  0.639E-01  0.639E-01
  -1.360  0.648E-01  0.648E-01
  -1.350  0.656E-01  0.656E-01
  -1.340  0.665E-01  0.665E-01
  -1.330  0.674E-01  0.674E-01
  -1.320  0.682E-01  0.682E-01
  -1.310  0.691E-01  0.691E-01
  -1.300  0.699E-01  0.699E-01
  -1.290  0.707E-01  0.707E-01
  -1.280  0.716E-01  0.716E-01
  -1.270  0.724E-01  0.724E-01
  -1.260  0.732E-01  0.732E-01
  -1.250  0.739E-01  0.739E-01
  -1.240  0.747E-01  0.747E-01
  -1.230  0.755E-01  0.755E-01
  -1.220  0.762E-01  0.762E-01
  -1.210  0.770E-01  0.770E-01
  -1.200  0.777E-01  0.777E-01
  -1.190  0.785E-01  0.785E-01
  -1.180  0.792E-01  0.792E-01
  -1.170  0.799E-01  0.799E-01
  -1.160  0.806E-01  0.806E-01
  -1.150  0.814E-01  0.814E-01
  -1.140  0.821E-01  0.821E-01
  -1.130  0.828E-01  0.828E-01
  -1.120  0.834E-01  0.834E-01
  -1.110  0.841E-01  0.841E-01
  -1.100  0.848E-01  0.848E-01
  -1.090  0.855E-01  0.855E-01
  -1.080  0.862E-01  0.862E-01
  -1.070  0.869E-01  0.869E-01
  -1.060  0.876E-01  0.876E-01
  -1.050  0.882E-01  0.882E-01
  -1.040  0.889E-01  0.889E-01
  -1.030  0.896E-01  0.896E-01
  -1.020  0.903E-01  0.903E-01
  -1.010  0.910E-01  0.910E-01
  -1.000  0.917E-01  0.917E-01
  -0.990  0.924E-01  0.924E-01
  -0.980  0.931E-01  0.931E-01
  -0.970  0.938E-01  0.938E-01
  -0.960  0.945E-01  0.945E-01
  -0.950  0.952E-01  0.952E-01
  -0.940  0.959E-01  0.959E-01
  -0.930  0.966E-01  0.966E-01
  -0.920  0.973E-01  0.973E-01
  -0.910  0.981E-01  0.981E-01
  -0.900  0.988E-01  0.988E-01
  -0.890  0.996E-01  0.996E-01
  -0.880  0.100E+00  0.100E+00
  -0.870  0.101E+00  0.101E+00
  -0.860  0.102E+00  0.102E+00
  -0.850  0.103E+00  0.103E+00
  -0.840  0.103E+00  0.103E+00
  -0.830  0.104E+00  0.104E+00
  -0.820  0.105E+00  0.105E+00
  -0.810  0.106E+00  0.106E+00
  -0.800  0.107E+00  0.107E+00
  -0.790  0.107E+00  0.107E+00
  -0.780  0.108E+00  0.108E+00
  -0.770  0.109E+00  0.109E+00
  -0.760  0.110E+00  0.110E+00
  -0.750  0.111E+00  0.111E+00
  -0.740  0.111E+00  0.111E+00
  -0.730  0.112E+00  0.112E+00
  -0.720  0.113E+00  0.113E+00
  -0.710  0.114E+00  0.114E+00
  -0.700  0.115E+00  0.115E+00
  -0.690  0.116E+00  0.116E+00
  -0.680  0.116E+00  0.116E+00
  -0.670  0.117E+00  0.117E+00
  -0.660  0.118E+00  0.118E+00
  -0.650  0.119E+00  0.119E+00
  -0.640  0.120E+00  0.120E+00
  -0.630  0.121E+00  0.121E+00
  -0.620  0.121E+00  0.121E+00
  -0.610  0.122E+00  0.122E+00
  -0.600  0.123E+00  0.123E+00
  -0.590  0.124E+00  0.124E+00
  -0.580  0.124E+00  0.124E+00
  -0.570  0.125E+00  0.125E+00
  -0.560  0.126E+00  0.126E+00
  -0.550  0.127E+00  0.127E+00
  -0.540  0.127E+00  0.127E+00
  -0.530  0.128E+00  0.128E+00
  -0.520  0.129E+00  0.129E+00
  -0.510  0.129E+00  0.129E+00
  -0.500  0.130E+00  0.130E+00
  -0.490  0.130E+00  0.130E+00
  -0.480  0.131E+00  0.131E+00
  -0.470  0.131E+00  0.131E+00
  -0.460  0.132E+00  0.132E+00
  -0.450  0.132E+00  0.132E+00
  -0.440  0.133E+00  0.133E+00
  -0.430  0.133E+00  0.133E+00
  -0.420  0.134E+00  0.134E+00
  -0.410  0.134E+00  0.134E+00
  -0.400  0.134E+00  0.134E+00
  -0.390  0.135E+00  0.135E+00
  -0.380  0.135E+00  0.135E+00
  -0.370  0.135E+00  0.135E+00
  -0.360  0.135E+00  0.135E+00
  -0.350  0.135E+00  0.135E+00
  -0.340  0.135E+00  0.135E+00
  -0.330  0.135E+00  0.135E+00
  -0.320  0.136E+00  0.136E+00
  -0.310  0.136E+00  0.136E+00
  -0.300  0.135E+00  0.135E+00
  -0.290  0.135E+00  0.135E+00
  -0.280  0.135E+00  0.135E+00
  -0.270  0.135E+00  0.135E+00
  -0.260  0.135E+00  0.135E+00
  -0.250  0.135E+00  0.135E+00
  -0.240  0.134E+00  0.134E+00
  -0.230  0.134E+00  0.134E+00
  -0.220  0.134E+00  0.134E+00
  -0.210  0.133E+00  0.133E+00
  -0.200  0.133E+00  0.133E+00
  -0.190  0.133E+00  0.133E+00
  -0.180  0.132E+00  0.132E+00
  -0.170  0.131E+00  0.131E+00
  -0.160  0.131E+00  0.131E+00
  -0.150  0.130E+00  0.130E+00
  -0.140  0.130E+00  0.130E+00
  -0.130  0.129E+00  0.129E+00
  -0.120  0.128E+00  0.128E+00
  -0.110  0.128E+00  0.128E+00
  -0.100  0.127E+00  0.127E+00
  -0.090  0.126E+00  0.126E+00
  -0.080  0.125E+00  0.125E+00
  -0.070  0.124E+00  0.124E+00
  -0.060  0.124E+00  0.124E+00
  -0.050  0.123E+00  0.123E+00
  -0.040  0.122E+00  0.122E+00
  -0.030  0.121E+00  0.121E+00
  -0.020  0.120E+00  0.120E+00
  -0.010  0.119E+00  0.119E+00
  -0.000  0.118E+00  0.118E+00
   0.010  0.117E+00  0.117E+00
   0.020  0.116E+00  0.116E+00
   0.030  0.115E+00  0.115E+00
   0.040  0.113E+00  0.113E+00
   0.050  0.112E+00  0.112E+00
   0.060  0.111E+00  0.111E+00
   0.070  0.110E+00  0.110E+00
   0.080  0.109E+00  0.109E+00
   0.090  0.108E+00  0.108E+00
   0.100  0.107E+00  0.107E+00
   0.110  0.105E+00  0.105E+00
   0.120  0.104E+00  0.104E+00
   0.130  0.103E+00  0.103E+00
   0.140  0.102E+00  0.102E+00
   0.150  0.101E+00  0.101E+00
   0.160  0.994E-01  0.994E-01
   0.170  0.981E-01  0.981E-01
   0.180  0.969E-01  0.969E-01
   0.190  0.957E-01  0.957E-01
   0.200  0.945E-01  0.945E-01
   0.210  0.933E-01  0.933E-01
   0.220  0.921E-01  0.921E-01
   0.230  0.909E-01  0.909E-01
   0.240  0.896E-01  0.896E-01
   0.250  0.884E-01  0.884E-01
   0.260  0.873E-01  0.873E-01
   0.270  0.861E-01  0.861E-01
   0.280  0.849E-01  0.849E-01
   0.290  0.837E-01  0.837E-01
   0.300  0.826E-01  0.826E-01
   0.310  0.814E-01  0.814E-01
   0.320  0.803E-01  0.803E-01
   0.330  0.792E-01  0.792E-01
   0.340  0.781E-01  0.781E-01
   0.350  0.770E-01  0.770E-01
   0.360  0.759E-01  0.759E-01
   0.370  0.748E-01  0.748E-01
   0.380  0.738E-01  0.738E-01
   0.390  0.728E-01  0.728E-01
   0.400  0.717E-01  0.717E-01
   0.410  0.707E-01  0.707E-01
   0.420  0.698E-01  0.698E-01
   0.430  0.688E-01  0.688E-01
   0.440  0.679E-01  0.679E-01
   0.450  0.670E-01  0.670E-01
   0.460  0.661E-01  0.661E-01
   0.470  0.652E-01  0.652E-01
   0.480  0.643E-01  0.643E-01
   0.490  0.635E-01  0.635E-01
   0.500  0.627E-01  0.627E-01
   0.510  0.619E-01  0.619E-01
   0.520  0.611E-01  0.611E-01
   0.530  0.604E-01  0.604E-01
   0.540  0.597E-01  0.597E-01
   0.550  0.590E-01  0.590E-01
   0.560  0.583E-01  0.583E-01
   0.570  0.576E-01  0.576E-01
   0.580  0.570E-01  0.570E-01
   0.590  0.564E-01  0.564E-01
   0.600  0.558E-01  0.558E-01
   0.610  0.553E-01  0.553E-01
   0.620  0.547E-01  0.547E-01
   0.630  0.542E-01  0.542E-01
   0.640  0.537E-01  0.537E-01
   0.650  0.532E-01  0.532E-01
   0.660  0.528E-01  0.528E-01
   0.670  0.524E-01  0.524E-01
   0.680  0.520E-01  0.520E-01
   0.690  0.516E-01  0.516E-01
   0.700  0.512E-01  0.512E-01
   0.710  0.509E-01  0.509E-01
   0.720  0.506E-01  0.506E-01
   0.730  0.503E-01  0.503E-01
   0.740  0.500E-01  0.500E-01
   0.750  0.498E-01  0.498E-01
   0.760  0.495E-01  0.495E-01
   0.770  0.493E-01  0.493E-01
   0.780  0.491E-01  0.491E-01
   0.790  0.490E-01  0.490E-01
   0.800  0.488E-01  0.488E-01
   0.810  0.487E-01  0.487E-01
   0.820  0.485E-01  0.485E-01
   0.830  0.484E-01  0.484E-01
   0.840  0.483E-01  0.483E-01
   0.850  0.483E-01  0.483E-01
   0.860  0.482E-01  0.482E-01
   0.870  0.481E-01  0.481E-01
   0.880  0.481E-01  0.481E-01
   0.890  0.481E-01  0.481E-01
   0.900  0.481E-01  0.481E-01
   0.910  0.481E-01  0.481E-01
   0.920  0.481E-01  0.481E-01
   0.930  0.481E-01  0.481E-01
   0.940  0.482E-01  0.482E-01
   0.950  0.482E-01  0.482E-01
   0.960  0.483E-01  0.483E-01
   0.970  0.483E-01  0.483E-01
   0.980  0.484E-01  0.484E-01
   0.990  0.485E-01  0.485E-01
   1.000  0.486E-01  0.486E-01
   1.010  0.487E-01  0.487E-01
   1.020  0.488E-01  0.488E-01
   1.030  0.489E-01  0.489E-01
   1.040  0.490E-01  0.490E-01
   1.050  0.491E-01  0.491E-01
   1.060  0.492E-01  0.492E-01
   1.070  0.493E-01  0.493E-01
   1.080  0.494E-01  0.494E-01
   1.090  0.496E-01  0.496E-01
   1.100  0.497E-01  0.497E-01
   1.110  0.498E-01  0.498E-01
   1.120  0.499E-01  0.499E-01
   1.130  0.501E-01  0.501E-01
   1.140  0.502E-01  0.502E-01
   1.150  0.503E-01  0.503E-01
   1.160  0.504E-01  0.504E-01
   1.170  0.505E-01  0.505E-01
   1.180  0.507E-01  0.507E-01
   1.190  0.508E-01  0.508E-01
   1.200  0.509E-01  0.509E-01
   1.210  0.510E-01  0.510E-01
   1.220  0.511E-01  0.511E-01
   1.230  0.512E-01  0.512E-01
   1.240  0.513E-01  0.513E-01
   1.250  0.514E-01  0.514E-01
   1.260  0.515E-01  0.515E-01
   1.270  0.515E-01  0.515E-01
   1.280  0.516E-01  0.516E-01
   1.290  0.517E-01  0.517E-01
   1.300  0.517E-01  0.517E-01
   1.310  0.518E-01  0.518E-01
   1.320  0.518E-01  0.518E-01
   1.330  0.519E-01  0.519E-01
   1.340  0.519E-01  0.519E-01
   1.350  0.520E-01  0.520E-01
   1.360  0.520E-01  0.520E-01
   1.370  0.520E-01  0.520E-01
   1.380  0.520E-01  0.520E-01
   1.390  0.520E-01  0.520E-01
   1.400  0.520E-01  0.520E-01
   1.410  0.520E-01  0.520E-01
   1.420  0.520E-01  0.520E-01
   1.430  0.519E-01  0.519E-01
   1.440  0.519E-01  0.519E-01
   1.450  0.519E-01  0.519E-01
   1.460  0.518E-01  0.518E-01
   1.470  0.518E-01  0.518E-01
   1.480  0.517E-01  0.517E-01
   1.490  0.516E-01  0.516E-01
   1.500  0.516E-01  0.516E-01
   1.510  0.515E-01  0.515E-01
   1.520  0.514E-01  0.514E-01
   1.530  0.513E-01  0.513E-01
   1.540  0.512E-01  0.512E-01
   1.550  0.511E-01  0.511E-01
   1.560  0.510E-01  0.510E-01
   1.570  0.509E-01  0.509E-01
   1.580  0.508E-01  0.508E-01
   1.590  0.507E-01  0.507E-01
   1.600  0.506E-01  0.506E-01
   1.610  0.504E-01  0.504E-01
   1.620  0.503E-01  0.503E-01
   1.630  0.502E-01  0.502E-01
   1.640  0.500E-01  0.500E-01
   1.650  0.499E-01  0.499E-01
   1.660  0.498E-01  0.498E-01
   1.670  0.496E-01  0.496E-01
   1.680  0.495E-01  0.495E-01
   1.690  0.493E-01  0.493E-01
   1.700  0.492E-01  0.492E-01
   1.710  0.490E-01  0.490E-01
   1.720  0.489E-01  0.489E-01
   1.730  0.487E-01  0.487E-01
   1.740  0.485E-01  0.485E-01
   1.750  0.484E-01  0.484E-01
   1.760  0.482E-01  0.482E-01
   1.770  0.481E-01  0.481E-01
   1.780  0.479E-01  0.479E-01
   1.790  0.477E-01  0.477E-01
   1.800  0.476E-01  0.476E-01
   1.810  0.474E-01  0.474E-01
   1.820  0.472E-01  0.472E-01
   1.830  0.471E-01  0.471E-01
   1.840  0.469E-01  0.469E-01
   1.850  0.467E-01  0.467E-01
   1.860  0.466E-01  0.466E-01
   1.870  0.464E-01  0.464E-01
   1.880  0.462E-01  0.462E-01
   1.890  0.461E-01  0.461E-01
   1.900  0.459E-01  0.459E-01
   1.910  0.457E-01  0.457E-01
   1.920  0.456E-01  0.456E-01
   1.930  0.454E-01  0.454E-01
   1.940  0.452E-01  0.452E-01
   1.950  0.450E-01  0.450E-01
   1.960  0.449E-01  0.449E-01
   1.970  0.447E-01  0.447E-01
   1.980  0.445E-01  0.445E-01
   1.990  0.443E-01  0.443E-01
   2.000  0.442E-01  0.442E-01
   2.010  0.440E-01  0.440E-01
   2.020  0.438E-01  0.438E-01
   2.030  0.436E-01  0.436E-01
   2.040  0.434E-01  0.434E-01
   2.050  0.432E-01  0.432E-01
   2.060  0.431E-01  0.431E-01
   2.070  0.429E-01  0.429E-01
   2.080  0.427E-01  0.427E-01
   2.090  0.425E-01  0.425E-01
   2.100  0.423E-01  0.423E-01
   2.110  0.421E-01  0.421E-01
   2.120  0.419E-01  0.419E-01
   2.130  0.417E-01  0.417E-01
   2.140  0.415E-01  0.415E-01
   2.150  0.413E-01  0.413E-01
   2.160  0.411E-01  0.411E-01
   2.170  0.409E-01  0.409E-01
   2.180  0.406E-01  0.406E-01
   2.190  0.404E-01  0.404E-01
   2.200  0.402E-01  0.402E-01
   2.210  0.400E-01  0.400E-01
   2.220  0.398E-01  0.398E-01
   2.230  0.395E-01  0.395E-01
   2.240  0.393E-01  0.393E-01
   2.250  0.391E-01  0.391E-01
   2.260  0.388E-01  0.388E-01
   2.270  0.386E-01  0.386E-01
   2.280  0.383E-01  0.383E-01
   2.290  0.381E-01  0.381E-01
   2.300  0.378E-01  0.378E-01
   2.310  0.376E-01  0.376E-01
   2.320  0.373E-01  0.373E-01
   2.330  0.371E-01  0.371E-01
   2.340  0.368E-01  0.368E-01
   2.350  0.366E-01  0.366E-01
   2.360  0.363E-01  0.363E-01
   2.370  0.360E-01  0.360E-01
   2.380  0.358E-01  0.358E-01
   2.390  0.355E-01  0.355E-01
   2.400  0.352E-01  0.352E-01
   2.410  0.349E-01  0.349E-01
   2.420  0.346E-01  0.346E-01
   2.430  0.343E-01  0.343E-01
   2.440  0.341E-01  0.341E-01
   2.450  0.338E-01  0.338E-01
   2.460  0.335E-01  0.335E-01
   2.470  0.332E-01  0.332E-01
   2.480  0.329E-01  0.329E-01
   2.490  0.326E-01  0.326E-01
   2.500  0.323E-01  0.323E-01
   2.510  0.320E-01  0.320E-01
   2.520  0.317E-01  0.317E-01
   2.530  0.313E-01  0.313E-01
   2.540  0.310E-01  0.310E-01
   2.550  0.307E-01  0.307E-01
   2.560  0.304E-01  0.304E-01
   2.570  0.301E-01  0.301E-01
   2.580  0.298E-01  0.298E-01
   2.590  0.294E-01  0.294E-01
   2.600  0.291E-01  0.291E-01
   2.610  0.288E-01  0.288E-01
   2.620  0.285E-01  0.285E-01
   2.630  0.281E-01  0.281E-01
   2.640  0.278E-01  0.278E-01
   2.650  0.275E-01  0.275E-01
   2.660  0.271E-01  0.271E-01
   2.670  0.268E-01  0.268E-01
   2.680  0.265E-01  0.265E-01
   2.690  0.261E-01  0.261E-01
   2.700  0.258E-01  0.258E-01
   2.710  0.255E-01  0.255E-01
   2.720  0.251E-01  0.251E-01
   2.730  0.248E-01  0.248E-01
   2.740  0.245E-01  0.245E-01
   2.750  0.241E-01  0.241E-01
   2.760  0.238E-01  0.238E-01
   2.770  0.234E-01  0.234E-01
   2.780  0.231E-01  0.231E-01
   2.790  0.228E-01  0.228E-01
   2.800  0.224E-01  0.224E-01
   2.810  0.221E-01  0.221E-01
   2.820  0.217E-01  0.217E-01
   2.830  0.214E-01  0.214E-01
   2.840  0.210E-01  0.210E-01
   2.850  0.207E-01  0.207E-01
   2.860  0.204E-01  0.204E-01
   2.870  0.200E-01  0.200E-01
   2.880  0.197E-01  0.197E-01
   2.890  0.193E-01  0.193E-01
   2.900  0.190E-01  0.190E-01
   2.910  0.186E-01  0.186E-01
   2.920  0.183E-01  0.183E-01
   2.930  0.179E-01  0.179E-01
   2.940  0.176E-01  0.176E-01
   2.950  0.172E-01  0.172E-01
   2.960  0.169E-01  0.169E-01
   2.970  0.165E-01  0.165E-01
   2.980  0.162E-01  0.162E-01
   2.990  0.158E-01  0.158E-01
   3.000  0.155E-01  0.155E-01
   3.010  0.151E-01  0.151E-01
   3.020  0.148E-01  0.148E-01
   3.030  0.144E-01  0.144E-01
   3.040  0.141E-01  0.141E-01
   3.050  0.137E-01  0.137E-01
   3.060  0.134E-01  0.134E-01
   3.070  0.130E-01  0.130E-01
   3.080  0.127E-01  0.127E-01
   3.090  0.123E-01  0.123E-01
   3.100  0.120E-01  0.120E-01
   3.110  0.116E-01  0.116E-01
   3.120  0.113E-01  0.113E-01
   3.130  0.109E-01  0.109E-01
   3.140  0.106E-01  0.106E-01
   3.150  0.102E-01  0.102E-01
   3.160  0.990E-02  0.990E-02
   3.170  0.956E-02  0.956E-02
   3.180  0.922E-02  0.922E-02
   3.190  0.888E-02  0.888E-02
   3.200  0.854E-02  0.854E-02
   3.210  0.820E-02  0.820E-02
   3.220  0.787E-02  0.787E-02
   3.230  0.754E-02  0.754E-02
   3.240  0.721E-02  0.721E-02
   3.250  0.688E-02  0.688E-02
   3.260  0.656E-02  0.656E-02
   3.270  0.624E-02  0.624E-02
   3.280  0.592E-02  0.592E-02
   3.290  0.561E-02  0.561E-02
   3.300  0.530E-02  0.530E-02
   3.310  0.500E-02  0.500E-02
   3.320  0.470E-02  0.470E-02
   3.330  0.440E-02  0.440E-02
   3.340  0.411E-02  0.411E-02
   3.350  0.382E-02  0.382E-02
   3.360  0.354E-02  0.354E-02
   3.370  0.326E-02  0.326E-02
   3.380  0.299E-02  0.299E-02
   3.390  0.273E-02  0.273E-02
   3.400  0.247E-02  0.247E-02
   3.410  0.221E-02  0.221E-02
   3.420  0.197E-02  0.197E-02
   3.430  0.172E-02  0.172E-02
   3.440  0.149E-02  0.149E-02
   3.450  0.126E-02  0.126E-02
   3.460  0.104E-02  0.104E-02
   3.470  0.828E-03  0.828E-03
   3.480  0.621E-03  0.621E-03
   3.490  0.421E-03  0.421E-03
   3.500  0.229E-03  0.229E-03
   3.510  0.435E-04  0.435E-04
   3.520 -0.135E-03 -0.135E-03
   3.530 -0.305E-03 -0.305E-03
   3.540 -0.469E-03 -0.469E-03
   3.550 -0.624E-03 -0.624E-03
   3.560 -0.773E-03 -0.773E-03
   3.570 -0.914E-03 -0.914E-03
   3.580 -0.105E-02 -0.105E-02
   3.590 -0.117E-02 -0.117E-02
   3.600 -0.129E-02 -0.129E-02
   3.610 -0.140E-02 -0.140E-02
   3.620 -0.151E-02 -0.151E-02
   3.630 -0.161E-02 -0.161E-02
   3.640 -0.170E-02 -0.170E-02
   3.650 -0.178E-02 -0.178E-02
   3.660 -0.186E-02 -0.186E-02
   3.670 -0.193E-02 -0.193E-02
   3.680 -0.199E-02 -0.199E-02
   3.690 -0.205E-02 -0.205E-02
   3.700 -0.210E-02 -0.210E-02
   3.710 -0.214E-02 -0.214E-02
   3.720 -0.218E-02 -0.218E-02
   3.730 -0.222E-02 -0.222E-02
   3.740 -0.224E-02 -0.224E-02
   3.750 -0.227E-02 -0.227E-02
   3.760 -0.228E-02 -0.228E-02
   3.770 -0.229E-02 -0.229E-02
   3.780 -0.230E-02 -0.230E-02
   3.790 -0.231E-02 -0.231E-02
   3.800 -0.230E-02 -0.230E-02
   3.810 -0.230E-02 -0.230E-02
   3.820 -0.229E-02 -0.229E-02
   3.830 -0.228E-02 -0.228E-02
   3.840 -0.226E-02 -0.226E-02
   3.850 -0.224E-02 -0.224E-02
   3.860 -0.222E-02 -0.222E-02
   3.870 -0.219E-02 -0.219E-02
   3.880 -0.216E-02 -0.216E-02
   3.890 -0.213E-02 -0.213E-02
   3.900 -0.210E-02 -0.210E-02
   3.910 -0.206E-02 -0.206E-02
   3.920 -0.202E-02 -0.202E-02
   3.930 -0.199E-02 -0.199E-02
   3.940 -0.194E-02 -0.194E-02
   3.950 -0.190E-02 -0.190E-02
   3.960 -0.186E-02 -0.186E-02
   3.970 -0.182E-02 -0.182E-02
   3.980 -0.177E-02 -0.177E-02
   3.990 -0.172E-02 -0.172E-02
   4.000 -0.168E-02 -0.168E-02
   4.010 -0.163E-02 -0.163E-02
   4.020 -0.158E-02 -0.158E-02
   4.030 -0.154E-02 -0.154E-02
   4.040 -0.149E-02 -0.149E-02
   4.050 -0.144E-02 -0.144E-02
   4.060 -0.140E-02 -0.140E-02
   4.070 -0.135E-02 -0.135E-02
   4.080 -0.130E-02 -0.130E-02
   4.090 -0.126E-02 -0.126E-02
   4.100 -0.121E-02 -0.121E-02
   4.110 -0.117E-02 -0.117E-02
   4.120 -0.112E-02 -0.112E-02
   4.130 -0.108E-02 -0.108E-02
   4.140 -0.104E-02 -0.104E-02
   4.150 -0.993E-03 -0.993E-03
   4.160 -0.952E-03 -0.952E-03
   4.170 -0.912E-03 -0.912E-03
   4.180 -0.873E-03 -0.873E-03
   4.190 -0.835E-03 -0.835E-03
   4.200 -0.798E-03 -0.798E-03
   4.210 -0.761E-03 -0.761E-03
   4.220 -0.726E-03 -0.726E-03
   4.230 -0.692E-03 -0.692E-03
   4.240 -0.659E-03 -0.659E-03
   4.250 -0.627E-03 -0.627E-03
   4.260 -0.597E-03 -0.597E-03
   4.270 -0.567E-03 -0.567E-03
   4.280 -0.538E-03 -0.538E-03
   4.290 -0.510E-03 -0.510E-03
   4.300 -0.484E-03 -0.484E-03
   4.310 -0.458E-03 -0.458E-03
   4.320 -0.434E-03 -0.434E-03
   4.330 -0.410E-03 -0.410E-03
   4.340 -0.387E-03 -0.387E-03
   4.350 -0.366E-03 -0.366E-03
   4.360 -0.345E-03 -0.345E-03
   4.370 -0.325E-03 -0.325E-03
   4.380 -0.306E-03 -0.306E-03
   4.390 -0.288E-03 -0.288E-03
   4.400 -0.271E-03 -0.271E-03
   4.410 -0.255E-03 -0.255E-03
   4.420 -0.240E-03 -0.240E-03
   4.430 -0.225E-03 -0.225E-03
   4.440 -0.211E-03 -0.211E-03
   4.450 -0.198E-03 -0.198E-03
   4.460 -0.185E-03 -0.185E-03
   4.470 -0.173E-03 -0.173E-03
   4.480 -0.162E-03 -0.162E-03
   4.490 -0.151E-03 -0.151E-03
   4.500 -0.141E-03 -0.141E-03
   4.510 -0.132E-03 -0.132E-03
   4.520 -0.123E-03 -0.123E-03
   4.530 -0.115E-03 -0.115E-03
   4.540 -0.107E-03 -0.107E-03
   4.550 -0.993E-04 -0.993E-04
   4.560 -0.923E-04 -0.923E-04
   4.570 -0.858E-04 -0.858E-04
   4.580 -0.796E-04 -0.796E-04
   4.590 -0.739E-04 -0.739E-04
   4.600 -0.685E-04 -0.685E-04
   4.610 -0.635E-04 -0.635E-04
   4.620 -0.588E-04 -0.588E-04
   4.630 -0.544E-04 -0.544E-04
   4.640 -0.503E-04 -0.503E-04
   4.650 -0.465E-04 -0.465E-04
   4.660 -0.429E-04 -0.429E-04
   4.670 -0.396E-04 -0.396E-04
   4.680 -0.365E-04 -0.365E-04
   4.690 -0.337E-04 -0.337E-04
   4.700 -0.310E-04 -0.310E-04
   4.710 -0.285E-04 -0.285E-04
   4.720 -0.262E-04 -0.262E-04
   4.730 -0.241E-04 -0.241E-04
   4.740 -0.222E-04 -0.222E-04
   4.750 -0.203E-04 -0.203E-04
   4.760 -0.186E-04 -0.186E-04
   4.770 -0.171E-04 -0.171E-04
   4.780 -0.157E-04 -0.157E-04
   4.790 -0.143E-04 -0.143E-04
   4.800 -0.131E-04 -0.131E-04
   4.810 -0.120E-04 -0.120E-04
   4.820 -0.110E-04 -0.110E-04
   4.830 -0.100E-04 -0.100E-04
   4.840 -0.912E-05 -0.912E-05
   4.850 -0.832E-05 -0.832E-05
   4.860 -0.758E-05 -0.758E-05
   4.870 -0.690E-05 -0.690E-05
   4.880 -0.628E-05 -0.628E-05
   4.890 -0.571E-05 -0.571E-05
   4.900 -0.519E-05 -0.519E-05
   4.910 -0.472E-05 -0.472E-05
   4.920 -0.428E-05 -0.428E-05
   4.930 -0.388E-05 -0.388E-05
   4.940 -0.352E-05 -0.352E-05
   4.950 -0.319E-05 -0.319E-05
   4.960 -0.289E-05 -0.289E-05
   4.970 -0.261E-05 -0.261E-05
   4.980 -0.236E-05 -0.236E-05
   4.990 -0.214E-05 -0.214E-05
   5.000 -0.193E-05 -0.193E-05
   5.010 -0.174E-05 -0.174E-05
   5.020 -0.157E-05 -0.157E-05
   5.030 -0.142E-05 -0.142E-05
